timestamp,TP9,AF7,AF8,TP10,label
0.000000,15995.6055,-15996.0938,10264.0180,9363.3137,0
0.003906,-62.5000,-1571.0334,3883.9246,-477.3182,0
0.007812,8995.6055,2716.1316,1541.8227,-4683.8944,0
0.011719,-15589.8438,13348.8521,-13371.4612,-5765.2685,0
0.015625,-12682.6172,9157.2413,-6475.6276,-4148.1280,0
0.019531,-12912.1094,1595.0163,-5798.1953,-6053.9192,0
0.023438,-14613.2812,11867.9852,-10869.8406,-2657.4757,0
0.027344,-9682.1289,-12656.1196,-5874.4344,-4322.3140,0
0.031250,-6929.6875,9928.3160,-9206.4677,-2128.1094,0
0.060099,-14792.9688,13232.4302,-12397.7678,-8293.2605,0
0.064005,-5056.6406,-6601.4554,-7454.3362,1022.2194,0
0.067912,11068.8477,-12766.9760,-9130.3867,3713.6786,0
0.071818,-14824.2188,11182.0148,-10742.5920,-1119.1349,0
0.075724,-7679.6875,-2807.4710,-7150.8002,3696.7403,0
0.079630,9124.5117,2239.1514,-11367.3542,996.3886,0
0.083537,-15035.1562,12424.3540,-13196.4594,2283.0232,0
0.087443,14443.8477,-1104.3126,-12854.8564,1149.5503,0
0.089300,-14761.7188,10685.5080,2396.4861,0.0000,0
0.091349,9100.5859,-416.2974,3891.4183,0.0000,0
0.093207,-14309.0820,-6559.7499,-2146.5249,0.0000,0
0.097113,-8958.4961,-9001.2696,-13141.3184,0.0000,0
0.101019,-15574.2188,11363.6507,-11418.2750,0.0000,0
0.104925,7689.4531,-10079.3442,564.4656,0.0000,0
0.108832,-14957.0312,-319.0634,2831.4342,0.0000,0
0.112738,-15050.7812,12323.3130,-8052.8923,0.0000,0
0.116644,12314.4531,-5964.2990,10927.4597,0.0000,0
0.120550,7031.2500,11022.7508,4664.0199,0.0000,0
0.149330,-15542.9688,13278.8918,-13641.4219,0.0000,0
0.153237,9813.9648,-9217.5579,-14975.3495,0.0000,0
0.157143,15006.8359,10748.0377,-12780.9751,0.0000,0
0.161049,-15839.8438,12936.7495,-12899.0879,78.6827,0
0.164955,5688.9648,-13133.0028,-7922.7685,174.5445,0
0.168862,-6974.6094,-4243.6515,3858.2014,339.1230,0
0.172768,-15464.8438,11824.7503,-12770.7309,1277.5466,0
0.176674,11189.9414,-7622.0198,-7938.3343,3070.3575,0
0.180580,-12955.5664,-1891.4300,6513.4558,13687.3354,0
0.208432,-15324.2188,12884.8602,-11379.8601,5961.7984,0
0.212339,11440.4297,-1874.6769,12840.9444,5161.4462,0
0.216245,-947.2656,1653.3531,-5433.9135,5834.5479,0
0.220151,-15105.4688,11368.1280,-12817.8188,6507.6497,0
0.224057,15441.4062,688.1540,421.9634,7180.7515,0
0.227964,5064.9414,-392.0350,-9236.3702,7853.8532,0
0.231870,-14878.9062,10565.2911,-13869.9546,8526.9550,0
0.235776,-11682.1289,4369.3018,-8328.0244,9200.0567,0
0.239295,-14636.7188,12674.4728,-13167.6750,5666.0558,0
0.239682,-10892.5781,13213.5827,-12872.9975,4369.7327,0
0.243201,-11681.6406,5110.1494,-9388.1925,-7054.6871,0
0.247107,11070.3125,-7829.9586,-2661.4903,-7766.4398,0
0.251013,-14886.7188,12467.0651,-15149.9275,5754.5444,0
0.254920,-9306.6406,9389.3359,-8541.6447,-3708.6874,0
0.258826,-4891.6016,1592.6132,7938.7503,557.2699,0
0.262732,-13831.5430,13989.3183,-9583.0648,5957.2349,0
0.266638,5194.3359,-11288.7731,6473.8662,-601.5504,0
0.270545,-890.1367,8900.5685,-5637.5839,5045.0957,0
0.284312,-14011.7188,15252.9214,-9852.4306,7167.1578,0
0.288219,-4055.6641,-10460.7430,4857.5255,-3395.7517,0
0.292125,13123.5352,-3751.0563,-10386.9002,-5077.5165,0
0.296031,-14261.7188,13982.9813,-9546.7976,7761.0237,0
0.299937,-5180.6641,-4447.7393,5518.6541,-3938.3126,0
0.303844,-4877.4414,-6949.7362,-13537.8354,-2086.0319,0
0.307750,-14089.8438,14115.9999,-10435.5163,7824.2762,0
0.311656,-2180.1758,2523.4764,6355.1742,-3581.5274,0
0.315562,5110.8398,-8214.3382,1809.6412,-3964.8155,0
0.329391,-14089.3555,-15790.7084,-12457.2486,8880.7941,0
0.333297,4319.8242,4103.8744,1082.0765,-2216.7385,0
0.337203,1103.5156,-2516.7609,8971.8705,-4883.6490,0
0.341110,-14159.6680,-14872.0067,10866.6831,10959.3919,0
0.345016,1194.8242,6598.5109,-4498.0102,6419.2998,0
0.348922,-10891.6016,-4232.9273,1327.3665,5297.2264,0
0.352828,-13995.6055,-14748.9669,11248.1693,10198.6757,0
0.356735,1570.3125,8618.5326,-1877.0539,-476.8666,0
0.360641,-14864.2578,3461.9505,5673.7181,-13079.7105,0
0.374321,-13933.5938,-14545.0379,10050.5175,10053.3146,0
0.378227,-3055.1758,-14822.7899,-3464.2277,4344.5147,0
0.382134,13125.4883,7034.2099,15127.5744,7031.6598,0
0.386040,-13644.0430,-12695.7866,11493.2691,4999.7208,0
0.389946,6195.8008,-9540.6955,-3858.8712,-6931.6313,0
0.393852,-6851.5625,13029.4384,-1905.1020,14223.3074,0
0.397759,-14042.9688,-12083.0221,10488.8402,11687.3754,0
0.401665,-2430.6641,-9643.9412,-7450.1317,2844.4046,0
0.405571,-12890.6250,13035.4827,-7047.9370,-13221.3296,0
6.286848,-14190.9180,-14222.3668,15109.1689,12387.0530,0
6.287038,-14175.7812,-14002.5506,14601.6075,12571.0466,0
6.287239,-14308.5938,-13933.4434,14157.6019,12746.3726,0
6.287464,-15050.7812,-14121.3323,13922.2996,13102.4962,0
6.287579,-14566.4062,-13854.6388,14421.6287,13722.4481,0
6.287769,-14925.7812,-14071.9499,14582.4917,14123.1573,0
6.287872,-15003.9062,-14619.2567,14609.2686,13847.0010,0
6.287970,-15269.5312,-15134.5254,15026.1708,14403.5680,0
6.288072,-14644.5312,-15079.9896,15659.8466,15292.4737,0
6.288168,-15175.7812,-15311.3704,15325.3142,15163.0470,0
6.288263,-15714.8438,-15852.1812,15294.9629,-484.0435,0
6.288357,-15066.4062,-15699.4787,15570.9396,-855.5519,0
6.288457,-14667.9688,-15435.6518,15895.5922,15223.0349,0
6.288551,-15183.5938,-15195.5170,8483.1088,14108.2590,0
6.288652,15620.6055,-15050.9762,-15960.9464,13230.6297,0
6.288750,15987.7930,-15281.1015,-10624.4610,3976.0104,0
6.288892,-14714.8438,-15320.9032,15769.6304,-13643.3939,0
6.288986,-14386.7188,-15265.6492,15626.3568,-338.9067,0
6.289096,-14542.9688,-15343.0517,15701.0189,12641.2735,0
6.289190,-14386.7188,-15216.2313,7866.1828,-604.7844,0
6.289283,-14667.9688,-15367.0682,-8600.6812,-92.2605,0
6.289376,-14988.2812,-15796.4956,12531.3420,-367.2164,0
6.289469,-14324.2188,-15935.9050,10195.7752,-14960.8061,0
6.289565,-14269.5312,7870.3281,9490.4639,-13828.0586,0
6.289658,-13996.0938,15241.5153,6024.1064,-12674.7306,0
6.289751,-13847.1680,14875.3187,0.0000,-299.1986,0
6.289855,-13589.3555,14326.7191,1545.9516,7473.3474,0
6.289950,-12542.4805,12344.9763,799.7891,0.0000,0
6.290043,-12394.0430,7896.5555,-8393.3883,3465.7895,0
6.290137,-12026.8555,5619.9872,13154.5046,-687.8479,0
6.290232,-12792.4805,9120.3368,11381.3463,-5570.2138,0
6.290328,-12378.4180,11516.7570,11940.8137,-2496.5066,0
6.290421,-13292.4805,11611.3072,10944.8346,-3536.5675,0
6.290514,-13651.8555,11687.7612,11388.0833,-5075.3496,0
6.290610,-12808.1055,11430.0634,14251.3963,5644.4142,0
6.290703,-11596.6797,11248.4248,-8457.4764,-5560.2230,0
6.290754,445.3125,7381.1044,6560.5989,-5818.3898,0
6.290796,-11190.9180,1746.4972,11475.0470,-6517.9346,0
6.290893,-15324.2188,10374.4485,10714.6439,-1525.7218,0
6.290944,-3430.6641,6246.9281,7467.2680,-6875.0377,0
6.290991,-14707.0312,3406.1631,5819.9797,3896.5796,0
6.291085,-15105.4688,-7345.9567,1179.6772,-8786.4813,0
6.291146,-6807.1289,-13105.7421,200.5836,-8552.6865,0
6.291181,-14652.3438,-11992.2117,90.0322,-8636.4633,0
6.291282,-14714.8438,-7098.8902,30.5213,9169.9006,0
6.291370,-14808.1055,-10407.9633,-2157.5671,-9945.6693,0
6.291373,-13651.8555,-10435.4285,-2079.1476,-9959.4031,0
6.291459,-12644.0430,-9034.9450,3192.6715,-10098.5097,0
6.291486,-10683.1055,-10361.3795,1069.4274,-10227.4948,0
6.291540,-13120.6055,735.9529,-570.1698,-677.3746,0
6.291662,-13901.8555,-12988.8671,-4830.4551,-11082.4959,0
6.291675,-12683.1055,-12983.2429,-2498.2104,-11104.4225,0
6.291745,-13886.2305,-10355.1054,9503.4176,206.0063,0
6.291778,-13182.1289,-12986.4383,11531.3104,-9682.4831,0
6.291834,-14324.2188,-12364.1624,14376.3949,-2027.4595,0
6.291876,14941.4062,-1332.9540,2738.6423,-11022.0494,0
6.291921,-14285.1562,3236.7628,-7436.7742,-12195.8359,0
6.291978,-14059.5703,3703.3957,-981.2784,-4661.6699,0
6.292002,-14464.8438,14252.2668,-3428.0245,4735.9991,0
6.292074,6939.9414,1407.5373,-872.3222,-10452.6291,0
6.292090,-14480.4688,5939.6669,-2191.4483,-9714.3669,0
6.292169,7314.9414,1884.2813,-496.0259,-12435.9126,0
6.292173,-14683.5938,2881.2196,-517.6714,-12444.7316,0
6.292256,-14722.6562,-12112.5843,-6057.8713,-5036.5449,0
6.292263,11815.9180,-12072.1522,-5804.0703,-6290.2697,0
6.292339,-15605.4688,-6900.4609,-855.3012,5200.3601,0
6.292363,-14935.0586,-10029.6966,-2657.0301,-4973.1537,0
6.292422,-15144.5312,-4737.7392,-3677.1559,8707.2798,0
6.292457,14314.9414,-13603.4168,-4733.7789,-9055.6545,0
6.292509,14979.9805,-14398.8051,-5242.0522,5473.0897,0
6.292558,-11816.4062,185.0451,-5633.9801,-12872.7035,0
6.292599,14870.6055,2152.9977,-4657.1822,-6701.1301,0
6.292656,-1561.5234,-13368.4853,-7604.6413,-11396.0409,0
6.292683,-14245.6055,-13440.6945,-10174.5600,-11458.9401,0
6.292768,-14292.9688,-7504.5371,-4861.2198,-9438.0628,0
6.292799,-11556.1523,-6559.1103,-6117.6047,-10918.1132,0
6.292854,-14300.7812,-3722.4515,-7826.7790,7560.0052,0
6.292893,-3554.6875,-3498.0385,-7896.5136,-10295.3518,0
6.292937,-14464.8438,-1716.9979,-9880.6324,14534.4477,0
6.293002,-12432.6172,-23.8273,-10663.3738,-9124.0993,0
6.293020,-14511.7188,6369.4346,-9582.2457,-6518.0993,0
6.293096,-5807.6172,3693.9442,-10718.4070,-13399.7462,0
6.293109,-14738.2812,8478.1726,-9303.1936,-13446.4333,0
6.293189,14440.9180,-15395.7155,-12378.6704,-14277.3438,0
6.293190,-15589.8438,-15392.8963,-12380.0306,-14277.3438,0
6.293282,-11933.5938,4875.8323,5367.2116,8309.1530,0
6.293375,-9058.1055,-1498.6883,1351.0189,11755.9244,0
6.293408,-15699.2188,-6192.8648,2324.4318,14101.6696,0
6.293471,-2806.1523,-10764.6442,-6880.0113,-14009.4759,0
6.293527,-15464.8438,-11711.5853,8570.1428,-13054.6087,0
6.293564,-806.6406,-13925.3699,1121.1953,-14024.2149,0
6.293608,-15355.4688,-13820.4575,-7862.6821,-11258.1839,0
6.293657,5445.3125,-2123.7479,-10545.4954,11926.5928,0
6.293685,12745.1172,9036.0333,-10331.5843,5522.2087,0
6.293761,10198.7305,-14211.2910,-13242.3481,-162.9222,0
6.293762,12166.9922,-14208.3193,-13227.0306,-466.6902,0
6.293843,14597.1680,-10028.8181,-1063.5938,-6413.9481,0
6.293857,14572.2656,-12802.0492,-3649.2580,-9393.7696,0
6.293920,15089.3555,-14422.4505,-6873.8031,-3993.8401,0
6.293950,-4798.3398,-10378.3874,-6974.3588,-10934.1946,0
6.294013,-15777.3438,-10481.6231,4189.3288,3369.4548,0
6.294043,-1423.3398,-11754.1880,616.5658,-9205.8193,0
6.294090,-15769.5312,6508.5233,-6872.3134,13190.7601,0
6.294138,-11425.7812,13171.6802,-7229.3582,-12775.8746,0
6.294171,-15808.5938,12324.4124,-3516.1187,-11250.3893,0
6.294234,-5172.8516,6302.4275,-10577.3424,-8932.9251,0
6.294251,-14847.6562,2932.4496,-10846.4014,-6058.6116,0
6.294327,12573.2422,-1966.1584,-6100.0978,-1046.9545,0
6.294328,-13690.9180,-2159.1190,-5961.8512,-863.1457,0
6.294421,1820.8008,2971.2358,-5937.4914,-13133.6394,0
6.294450,-15597.6562,-8721.5308,-4951.5246,-11894.0826,0
6.294517,-12926.2695,5677.5051,-8505.6267,-11689.3652,0
6.294525,15862.7930,9599.0080,-6445.6477,-10694.5635,0
6.294609,7079.5898,-4202.6537,14616.4921,14489.1184,0
6.294615,15948.7305,-6222.2531,12086.8475,14295.2244,0
6.294661,-883.3008,-4790.7204,-7587.9250,-12404.7555,0
6.294691,15089.3555,7771.9056,-125.3172,-3836.5106,0
6.294702,15450.1953,12346.4848,-2476.5057,-716.4532,0
6.294770,15222.1680,8737.8635,-10420.7708,10740.2402,0
6.294799,-13433.5938,11986.4099,3978.2318,10505.2943,0
6.294850,-881.8359,6120.8833,-10812.1386,-5866.4537,0
6.294876,15667.9688,9250.5359,-3993.5040,-9101.4178,0
6.294897,12940.4297,-14498.4287,-7649.4687,-11699.6248,0
6.294953,15815.9180,-7808.9303,-6867.4730,-11572.7906,0
6.294992,-8681.1523,-6540.5390,-3157.1324,-11144.8383,0
6.295029,15144.0430,-4314.9588,-9234.3703,-9639.9342,0
6.295052,-874.0234,-15631.3133,-3204.9264,-9695.1960,0
6.295087,-10057.1289,-15434.8391,-15677.1072,-10790.4442,0
6.295105,14651.8555,-15336.3718,-15695.3235,-11127.3280,0
6.295181,15503.4180,-14836.8819,-11533.1454,-3297.8680,0
6.295189,-6055.1758,-14788.6829,-11856.8291,-1784.2125,0
6.295259,-15988.7695,-9766.4325,-4658.9538,-4467.3440,0
6.295276,11078.1250,-14598.7502,-7081.7865,-7519.5848,0
6.295279,5196.2891,-14818.0104,-7521.1817,-8045.1660,0
6.295333,-15550.7812,-5562.2702,-8788.0776,-3355.4180,0
6.295365,13446.7773,-11207.6665,10585.1373,-10529.1779,0
6.295392,-928.2227,-6984.3548,-13046.5511,-7000.1077,0
6.295408,-15996.0938,-10715.1445,-10880.6403,-4531.8727,0
6.295446,-9800.7812,-12429.4903,-11110.3801,-10815.6159,0
6.295482,-15746.0938,6600.1930,-13428.9920,2563.7902,0
6.295562,-15667.9688,-15548.3765,5918.2617,-13710.1555,0
6.295568,5321.7773,-15568.6033,3597.2874,-13420.3385,0
6.295581,11065.9180,-11998.8420,-985.4383,-12848.0994,0
6.295638,-15238.2812,-6729.6746,4733.0028,252.5127,0
6.295652,2944.8242,-13710.4308,6092.1023,-4147.8588,0
6.295685,5087.4023,10843.4771,-9146.9473,-3728.3547,0
6.295713,-14753.9062,2346.4769,-9728.5837,-4634.0562,0
6.295740,-3305.6641,-15311.1507,-6115.0207,-11457.3934,0
6.295782,-12923.3398,-8929.0981,14882.8049,3488.6665,0
6.295798,-15066.4062,-4805.7236,11394.7341,1227.4225,0
6.295827,-5056.1523,-4642.7477,-1430.7967,-8810.4731,0
6.295873,-14441.4062,-2367.0906,-11054.1645,5594.3273,0
6.295884,-12946.7773,-10150.3394,-7584.7546,155.2900,0
6.295908,-6056.1523,-3276.4741,-10083.0641,-11377.4519,0
6.295951,-14605.4688,-10043.4363,-13327.7990,6049.6062,0
6.295980,15047.3633,-14403.7831,-7697.1199,-7420.5301,0
6.295996,-4179.6875,-13459.6571,-11437.5123,-8232.4051,0
6.296028,-14660.1562,-7430.1449,-11127.3998,12765.3371,0
6.296076,13056.6406,-9463.0513,-11481.1478,-13038.0814,0
6.296080,-8432.6172,-8689.8908,-12688.2253,-13094.9854,0
6.296102,-15988.2812,-2363.6811,-6836.7783,-13416.8490,0
6.296162,14691.4062,-8869.8231,-12201.7560,-10650.3988,0
6.296169,-14928.2227,-7819.4056,-10395.1041,-9857.1370,0
6.296176,-15855.4688,-6736.2605,-8532.1627,-9039.1597,0
6.296245,12940.4297,-10900.3409,2557.5353,-5782.5756,0
6.296253,-15378.9062,-10160.0493,3316.6021,-5992.0839,0
6.296269,-2952.1484,7720.2132,4087.7672,-6443.6387,0
6.296326,-15527.3438,11006.2583,-5973.5036,-11471.3524,0
6.296328,13563.9648,11265.4849,-5233.2998,-11561.8920,0
6.296364,3038.5742,-4344.4375,-7910.7043,-12588.2784,0
6.296400,-15910.6445,5501.6445,4746.7679,6924.4218,0
6.296415,10179.1992,12068.2503,299.0664,13733.5835,0
6.296464,948.2422,-13981.0462,-11213.4763,5043.5715,0
6.296475,15644.0430,-13559.9390,-6531.9382,1197.4121,0
6.296505,-14689.9414,13269.6464,5021.4475,-9169.2436,0
6.296552,-15636.7188,13395.4719,3858.5293,-15380.8609,0
6.296563,-12960.9375,14061.3548,2916.8022,-14622.4851,0
6.296590,4317.8711,12626.0460,7696.4172,-12667.7768,0
6.296636,-15691.8945,-1566.7318,9390.9124,8167.3793,0
6.296674,-929.1992,12493.1625,325.3038,-12375.7915,0
6.296705,9109.8633,6290.1298,7478.3409,-4834.0751,0
6.296712,-15715.3320,4112.3323,2693.7059,-2972.5649,0
6.296760,-15557.6172,-944.9786,6489.2726,-9371.4680,0
6.296788,14745.6055,-8199.2243,-14019.3183,-10707.9578,0
6.296799,-4885.7422,5005.0169,-13202.3899,-11208.4056,0
6.296844,13440.4297,2347.5771,-14608.3920,870.7511,0
6.296867,14183.1055,124.3023,-4023.8677,-6006.0944,0
6.296908,-894.5312,7506.3655,-12083.6664,-12616.3250,0
6.296926,-10432.6172,1020.1620,-9231.5712,-10499.9703,0
6.296942,15824.2188,1814.7912,-10986.9799,-8642.0302,0
6.297002,11084.4727,4885.9240,-10024.6963,-11483.3984,0
6.297016,-11932.6172,1439.5780,-10394.6565,-11916.0471,0
6.297016,-13902.3438,1334.3538,-10405.9521,-11929.2568,0
6.297095,11079.1016,12958.6309,-2023.4030,-2038.1476,0
6.297096,6939.4531,13026.9576,-2092.5546,-2050.9958,0
6.297131,-14792.9688,-2336.9792,-4956.5768,-2583.1273,0
6.297189,-12932.6172,-4059.2614,-13804.0743,-7077.2149,0
6.297207,-15128.9062,-12798.3562,-6201.9521,-1416.6369,0
6.297281,-14628.9062,14868.6523,-15839.9294,-12831.7801,0
6.297282,13079.5898,14875.3827,-15837.3877,-12836.0655,0
6.297314,6689.4531,6557.4318,-15725.9758,-13023.9103,0
6.297354,-14769.5312,-5853.2785,-5683.5480,-3573.2625,0
6.297377,7079.5898,15001.6031,6183.2736,-6691.5312,0
6.297430,-14261.7188,-4769.9817,-10177.7344,10951.5113,0
6.297433,4813.4766,-6713.2174,-9314.4531,8821.9540,0
6.297470,-6888.1836,-8858.6983,-11548.5636,-8213.5268,0
6.297514,12440.4297,-5647.0586,1757.2613,8524.3207,0
6.297517,-15292.9688,-5434.7746,1553.2934,9070.7358,0
6.297564,-4865.2344,-5694.5888,-5533.4760,-11928.0045,0
6.297591,8050.2930,6223.9892,-12508.2538,-3878.7593,0
6.297601,-14003.9062,9931.0556,-10333.2031,-1199.4599,0
6.297668,9180.1758,-6279.4441,-13157.5406,-2281.1968,0
6.297668,12425.2930,-6130.9771,-13029.7457,-1976.8377,0
6.297674,-15300.7812,-5131.2621,-12169.2283,72.5908,0
6.297746,-15253.9062,-15030.9794,8333.2776,-4724.7216,0
6.297749,9556.6406,-15021.5772,7172.0181,-5381.9684,0
6.297763,-6813.4766,-14976.0639,1550.7147,-8563.5006,0
6.297823,-15269.5312,-10478.6134,-7692.5897,2290.0415,0
6.297826,-4186.0352,-11410.5618,-9990.3852,674.0155,0
6.297856,-14778.8086,-4986.7243,-14407.7906,-12056.8217,0
6.297895,-15136.7188,-1570.3194,-1744.3581,9913.2165,0
6.297919,10939.4531,-8111.8769,11202.9917,-1909.5477,0
6.297949,-8755.3711,9888.7417,-14433.7918,-8690.7733,0
6.297966,-15496.0938,4439.6469,235.6576,-3890.2842,0
6.297996,8689.9414,-10979.0648,-1553.6214,4854.3824,0
6.298037,-15715.3320,-9103.0207,6002.5914,13116.9921,0
6.298044,1194.8242,-11360.0725,5676.6169,8102.8594,0
6.298077,1314.4531,3271.5565,-6864.1942,-5975.5891,0
6.298110,15034.6680,-14648.5481,4710.4127,13927.4468,0
6.298140,11218.7500,-6781.6133,-6964.1844,-8382.9163,0
6.298157,-13432.6172,4224.8117,9101.7840,-13638.6970,0
6.298182,15261.2305,-11158.3830,14574.0593,-14135.2016,0
6.298234,-4827.1484,321.9890,-14884.8246,-7095.3465,0
6.298234,13946.7773,604.1139,-15327.3984,-6869.5185,0
6.298253,-15691.4062,8917.5451,-13675.4809,-214.9985,0
6.298327,15166.9922,-1806.5580,-9105.5306,1769.8308,0
6.298356,4313.9648,2535.7023,-2105.4762,-2981.4571,0
6.298423,-14830.0781,-9758.0367,-11196.2684,697.3990,0
6.298432,-1687.9883,-11881.9961,-9158.5213,5545.4528,0
6.298516,3289.0625,-2470.2646,15190.9243,294.7892,0
6.298521,-8814.9414,-2686.6866,13174.2400,1902.9610,0
6.298567,-13941.4062,-2195.4436,-2510.8907,6190.8282,0
6.298597,15434.0820,-5181.6018,-267.1711,9748.0867,0
6.298608,13300.2930,-6268.9872,-2989.0750,11043.4337,0
6.298676,-9064.4531,-1741.8844,323.5992,10554.4275,0
6.298705,-964.8438,-134.0955,11528.7376,-3653.5636,0
6.298757,-14058.5938,790.6155,10986.7164,1677.9099,0
6.298783,436.5234,-8459.3405,9675.6477,4244.7201,0
6.298803,15037.5977,9543.2589,5505.6202,6306.2900,0
6.298859,-2689.9414,10798.3021,-227.5863,-11238.0760,0
6.298898,-2914.0625,-1860.1825,6087.6772,-13458.9753,0
6.298935,-10564.4531,-4448.0598,-2120.9607,885.5274,0
6.298958,-14160.1562,8739.0573,-736.1112,339.9203,0
6.298993,-12892.5781,-3647.8692,4560.8502,-817.3471,0
6.299011,14558.1055,-9855.8468,4531.4764,4030.2805,0
6.299087,-2314.9414,-2981.7193,-8240.3498,5788.5045,0
6.299095,7138.6719,-5335.1610,-7436.7325,8534.0402,0
6.299165,-6437.5000,9874.9837,-4951.6948,-12601.1955,0
6.299182,-14480.4688,13455.3770,-6985.7909,-12573.9043,0
6.299186,13146.4844,13809.5301,-7149.8383,-12569.2049,0
6.299239,8687.9883,-10373.3181,-9660.7798,12755.3602,0
6.299271,9156.2500,-9855.9506,11481.1901,944.7442,0
6.299298,-15113.2812,-8927.2677,8686.0458,5275.2780,0
6.299314,937.5000,288.2588,-364.2273,8834.3884,0
6.299352,15162.5977,-12637.8083,-1954.3027,2911.4993,0
6.299388,7564.9414,-1797.0285,6127.8662,10715.7978,0
6.299468,11437.9883,8754.7728,-1339.9180,-7344.2214,0
6.299475,-6852.0508,8775.5706,-1422.1113,-5998.7546,0
6.299488,-14816.4062,6515.2789,-1584.4007,-3342.1525,0
6.299544,12815.4297,-3886.3765,-4524.5656,13949.4168,0
6.299558,-2882.3242,1320.5336,7527.5572,9781.0050,0
6.299591,-14683.5938,2158.0026,5058.7226,3010.3889,0
6.299619,-13558.5938,-11026.8074,5309.1056,9184.0934,0
6.299647,15103.0273,12240.1670,11571.3373,11049.6787,0
6.299689,-14636.7188,-4422.7297,-755.4523,-9184.4019,0
6.299704,-12933.1055,-9887.9093,-5854.3435,-8428.3500,0
6.299733,5103.0273,4544.5143,-4372.5207,-3088.2343,0
6.299780,-11808.5938,2074.7156,5433.3191,-3105.0651,0
6.299791,-14949.2188,8387.8276,-3299.7905,-3766.2145,0
6.299814,13084.9609,-14600.0510,-7932.2866,-5168.0923,0
6.299858,-8681.6406,-8547.4820,10317.2837,13505.6905,0
6.299887,-15300.7812,-14697.9785,-7312.5656,1354.4572,0
6.299902,-860.3516,-15288.2807,-5291.5544,-4960.9936,0
6.299934,15940.9180,-3509.5189,4956.9169,-15481.5344,0
6.299982,-15089.8438,-13980.9815,-6385.2881,-5963.8509,0
6.299986,-2889.6484,-14196.9011,-5987.5691,-4251.0744,0
6.300009,5688.4766,5639.4497,-1273.0823,5436.8177,0
6.300069,5086.9141,2574.8786,10369.8202,4365.5554,0
6.300075,-15308.5938,1549.9268,10087.4791,3227.7607,0
6.300082,1437.9883,493.0407,9796.3412,2054.5159,0
6.300151,-10928.7109,4822.0454,15079.7088,14607.5105,0
6.300159,6313.4766,4966.4939,12446.8521,14722.9875,0
6.300176,-14917.9688,-1946.5653,4903.7382,14971.8759,0
6.300233,5562.9883,-14432.7912,6506.8504,8646.4165,0
6.300235,13045.8984,-14362.5163,7870.0097,7309.6289,0
6.300270,-15285.1562,-11964.1918,-1917.2243,-14140.4128,0
6.300306,-3312.9883,-14019.2580,8286.3075,4557.7783,0
6.300322,-3102.0508,-11060.3220,-727.9553,11343.5183,0
6.300370,15526.8555,-8081.2299,-7685.1474,-12184.9951,0
6.300382,-3187.9883,-10921.6585,-6927.3942,-11085.5471,0
6.300411,-8991.6992,-2550.1539,-5858.9282,-8122.1755,0
6.300458,4937.5000,2645.1413,-10994.2221,4249.3085,0
6.300469,-15722.6562,7930.0398,-7108.3371,6839.2693,0
6.300496,-6921.8750,11697.2574,-114.0199,13514.8753,0
6.300542,-9066.8945,-14470.1335,6662.1402,6815.0682,0
6.300580,5122.5586,-5984.2107,13571.3532,11184.1077,0
6.300611,-14683.5938,-3595.6643,5576.9046,8613.7064,0
6.300618,-9191.8945,-7146.0497,2201.0864,7894.9062,0
6.300666,9092.7734,4015.5448,3048.8641,14774.4195,0
6.300695,15060.5469,11440.5939,7517.2220,12470.3388,0
6.300705,-14316.4062,3608.3106,866.3918,11607.5773,0
6.300750,-4919.4336,-11898.9446,-10866.2451,10786.7243,0
6.300773,8309.0820,-9061.4211,3664.3774,12055.2035,0
6.300814,-14597.6562,-12167.4415,8396.0729,-13432.3358,0
6.300832,-4907.2266,-14390.3130,13322.2571,-2501.1316,0
6.300848,688.9648,-5065.1782,13957.6667,7095.3329,0
6.300908,-14730.4688,-15326.7092,-821.1626,4844.4010,0
6.300922,15072.2656,-15371.2723,-914.5262,-1227.7508,0
6.300922,-3431.6406,-15372.6329,-917.3768,-1413.1464,0
6.301002,-14785.1562,1563.0025,-8385.7870,-13858.9321,0
6.301002,-947.7539,1542.4773,-8283.7249,-13879.5295,0
6.301037,-15560.0586,-7869.4680,-4056.6617,-14732.6028,0
6.301095,-14636.7188,11463.1275,5452.8892,-7631.2699,0
6.301113,-7806.1523,15045.2772,6511.4389,-10838.7117,0
6.301187,-15060.0586,-6536.6211,-127.3305,13258.3656,0
6.301188,-14730.4688,-6791.2664,-145.1424,13241.8885,0
6.301221,-8959.9609,12201.9080,-925.8975,12519.6429,0
6.301261,-12683.5938,-2446.9110,8997.3805,583.4823,0
6.301283,-14675.7812,-6555.9320,-509.5418,-10156.0346,0
6.301336,-556.6406,5518.3541,5265.6368,-10335.4934,0
6.301339,-14974.1211,4464.0855,4838.2573,-8910.2908,0
6.301377,-13964.3555,7826.4843,7594.9687,-1306.3445,0
6.301420,15007.8125,5705.8643,-3931.4808,-14623.1230,0
6.301423,9939.9414,4340.7908,-3475.1482,-14663.6145,0
6.301470,-13683.1055,6603.1167,-3595.2867,7940.4257,0
6.301498,-15127.4414,13136.7794,8103.9682,9752.3751,0
6.301507,-7934.0820,7824.2356,6694.7754,10355.5068,0
6.301574,-13394.0430,2815.5703,8665.3168,-7723.2486,0
6.301575,8791.5039,2669.6137,8345.3433,-7869.4609,0
6.301580,9690.9180,1686.8019,6190.7739,-8853.9939,0
6.301652,1561.5234,13633.6248,-9274.1841,344.9261,0
6.301655,-13063.4766,13844.2147,-8289.7084,378.6377,0
6.301669,-12925.2930,14863.6163,-3524.1611,541.8257,0
6.301729,11938.4766,-7396.8868,11340.8848,4281.7703,0
6.301733,-4947.2656,-9155.1554,10878.2705,5385.2490,0
6.301762,-12237.7930,-542.3472,-3466.7285,14078.3065,0
6.301801,-15433.5938,-4424.6164,-3397.5415,9704.2412,0
6.301825,7030.7617,-11063.2918,7134.1387,10908.8785,0
6.301855,-11956.5430,2807.9816,10554.6410,887.6028,0
6.301872,5187.9883,5667.1227,3783.0231,-3325.9768,0
6.301902,7040.5273,9878.0664,1723.4200,-5586.8500,0
6.301943,-312.5000,-5440.7153,12510.8642,-10813.5296,0
6.301951,-12823.7305,-9420.2009,12836.7418,-11688.2399,0
6.301984,-2955.0781,6296.7180,6480.4353,-11913.2655,0
6.302017,-15941.4062,-7538.9976,10058.6595,11518.7137,0
6.302047,-12878.4180,-4666.3851,11728.6119,11220.8497,0
6.302063,1090.8203,7091.6681,1706.1504,6463.4761,0
6.302088,-6688.9648,3563.1448,3144.3887,-2198.3966,0
6.302140,-13276.8555,1216.5125,1944.2079,-12411.1990,0
6.302140,-904.2969,1491.6976,1512.1221,-12315.4251,0
6.302159,9313.4766,9600.6318,3862.6022,-9493.2365,0
6.302233,-13175.2930,5914.1860,-3821.0948,-11397.1719,0
6.302262,5038.0859,9718.2561,-1049.4092,-7836.6540,0
6.302329,-13120.6055,9116.6463,-493.3722,4530.2973,0
6.302338,-7007.8125,9862.7657,1425.0330,6150.7888,0
6.302422,-11307.6172,4218.8655,-11529.6861,-11153.8566,0
6.302428,-1009.7656,5946.0010,-10333.3218,-11169.2899,0
6.302473,-4307.6172,11480.6079,-1028.3805,-7776.9249,0
6.302503,-15043.4570,7497.5733,7197.8455,-8564.5950,0
6.302514,-13324.2188,6047.1833,3909.5605,-8851.4187,0
6.302582,-9027.8320,6928.8456,896.3530,2267.3152,0
6.302612,-15894.5312,6558.7718,7107.9750,-3420.6004,0
6.302663,-5055.6641,5789.2094,-3167.9764,-9359.4761,0
6.302689,-13011.7188,1498.8824,6027.0439,-8344.9140,0
6.302710,-15535.1562,9423.1185,4972.5734,-7530.0541,0
6.302765,-3047.8516,-2580.1338,1368.4601,-6893.9712,0
6.302804,-14261.7188,-13104.2259,-4798.4768,1027.4608,0
6.302841,-11051.2695,-6448.7305,-7004.4014,-6015.7628,0
6.302864,-11307.6172,2258.2699,-2430.9824,-7572.4023,0
6.302900,-14175.7812,-4981.4584,-771.5273,-7200.4291,0
6.302917,-11073.2422,-8609.8057,2494.7760,-7671.1858,0
6.302993,-9025.8789,-3930.4208,4386.8450,-11607.2639,0
6.303001,-13886.7188,-5207.5390,5063.9105,-12652.7602,0
6.303071,1011.7188,-3700.9432,-314.1226,-3893.2929,0
6.303089,-6682.6172,-1084.0054,2383.5856,1401.9521,0
6.303092,-13581.5430,-1645.9117,2923.3664,2313.7677,0
6.303146,8996.0938,2213.4934,3135.0807,-6175.7266,0
6.303178,-13706.5430,-3121.2167,5276.8444,234.9679,0
6.303204,14190.9180,-11943.9134,-4812.5102,-6513.5935,0
6.303221,-6993.1641,-10549.8231,-4787.0826,-11566.0338,0
6.303258,-12737.7930,-2735.5317,1643.5320,-14119.1103,0
6.303295,-6943.3594,-9990.1080,3426.5197,-849.5740,0
6.303374,10977.5391,-6749.3601,9996.7391,-4139.8685,0
6.303381,-13823.7305,-8255.1176,8286.5189,-2843.1712,0
6.303394,-13934.0820,-11259.7454,4909.7170,-282.8634,0
6.303450,7060.0586,6978.7025,1380.4628,9344.2871,0
6.303464,-14042.4805,13113.7603,-7129.8795,1150.3794,0
6.303497,-9933.5938,-11773.6858,2865.6322,-12201.2849,0
6.303526,1052.7344,-9371.2671,13797.2972,2122.4558,0
6.303553,-14175.7812,-9001.2760,860.7815,14346.4417,0
6.303595,-10433.1055,-14068.4955,-2761.6027,-8683.1196,0
6.303610,-2927.7344,-14838.3837,-1788.9621,-9395.5663,0
6.303640,-14066.4062,5607.6430,-6424.3440,-4335.7731,0
6.303686,-8914.0625,-1032.3207,-2751.9120,-9106.7807,0
6.303697,-12559.5703,3831.9362,-958.6135,-4171.7229,0
6.303720,-14542.9688,13279.7541,4727.4472,6292.3986,0
6.303764,-2886.7188,-1586.4241,-5171.1472,-8599.0397,0
6.303793,10064.4531,8691.9881,1152.2417,6669.7037,0
6.303809,-14128.9062,8116.2143,5569.2572,12018.1194,0
6.303840,-8948.2422,-3457.6831,3685.5688,5886.2002,0
6.303888,15441.8945,11531.7467,9897.1581,-1336.4704,0
6.303892,-14285.1562,11322.7813,12395.0724,-2336.4881,0
6.303915,14988.2812,-9916.1562,9716.8819,-7992.8379,0
6.303975,-14644.5312,-5695.9332,-6614.9254,-8709.1227,0
6.303982,10565.4297,-7750.1583,-6329.8569,-9257.8919,0
6.303989,3010.2539,-9868.3865,-6035.9065,-9823.7589,0
6.304057,-14589.8438,-13273.6889,-1178.0893,-2944.7645,0
6.304065,-4968.7500,-12990.9009,-1719.2602,-4619.9205,0
6.304082,-15558.1055,26.4392,-2907.6494,-8230.3966,0
6.304139,-12972.1680,8866.9102,-4580.7939,4307.3684,0
6.304141,-15128.9062,8862.1533,-3624.3706,4012.7472,0
6.304176,-12308.1055,-12958.2515,-6439.9292,-1497.0779,0
6.304212,-13005.8594,-12172.2039,-6111.6087,-1743.9960,0
6.304228,15003.4180,-6142.0876,-2108.8566,5364.3086,0
6.304277,-9064.9414,-12400.4595,-13034.3300,-11445.5139,0
6.304288,7006.8359,-12206.5117,-10120.2886,-9110.3320,0
6.304318,-15973.1445,-335.7879,-3319.2418,-2816.2543,0
6.304365,-9015.6250,-9665.2666,-2204.4915,-9563.7946,0
6.304375,8939.4531,-8239.5282,-7380.1443,-4656.8628,0
6.304402,-14472.6562,-10256.0518,-1336.5463,7990.7196,0
6.304449,-15036.1328,-12493.7337,-912.2932,-8948.6684,0
6.304487,-13979.9805,-11273.7079,-10708.1197,14874.3225,0
6.304517,-14807.6172,-7453.9740,-9437.4314,-3584.2565,0
6.304524,-9077.6367,-2671.3516,-9657.2602,-7945.4302,0
6.304573,-14386.7188,-4421.1990,-2397.0110,-14925.0196,0
6.304601,7001.4648,-12386.6833,-7299.5049,-13129.7467,0
6.304611,-1431.6406,-6088.4143,-8413.8878,-12457.5080,0
6.304656,-14699.2188,1050.9185,7631.1523,14882.4066,0
6.304679,12959.4727,13933.0244,-330.0741,-102.9726,0
6.304721,-9056.6406,7881.3925,-8200.6355,-9196.7487,0
6.304739,-14363.2812,13486.1989,2751.8350,-11396.8627,0
6.304754,9048.3398,-6900.9167,-1196.1509,-13328.3348,0
6.304815,-13683.5938,4802.5852,9679.4055,2604.4922,0
6.304828,-14777.3438,6061.0293,10763.9291,2225.9246,0
6.304829,-8947.7539,6099.4523,10797.0419,2214.3661,0
6.304908,-13932.1289,-15407.7549,-12093.3757,-14141.5134,0
6.304909,-15082.0312,-15408.1577,-12102.6573,-14143.6062,0
6.304943,15051.2695,3775.5754,-12487.0676,-14230.2855,0
6.305001,-11183.1055,1002.7143,15040.7606,-508.9366,0
6.305020,-14925.2930,-846.5785,8148.3820,3786.8142,0
6.305093,3037.5977,-1086.7920,-536.3408,-1867.2309,0
6.305094,-9556.6406,-1005.5971,-678.6023,-2009.2057,0
6.305127,-15191.4062,-9442.6964,-6914.3957,-8232.4323,0
6.305167,-953.1250,-8954.7852,4519.1856,-6134.3719,0
6.305190,-5431.1523,2361.4176,-6259.3461,-12612.7526,0
6.305243,7101.0742,-11087.5651,8045.3983,12389.7511,0
6.305246,-15605.4688,-11076.2804,6873.1685,11416.2268,0
6.305283,320.3125,-3181.9013,-5815.6402,-5043.5716,0
6.305327,15745.6055,-681.3250,-8032.8749,7821.9356,0
6.305330,-10930.6641,-2854.3435,-7100.4876,9472.5167,0
6.305376,4821.7773,3331.6068,-10592.0410,-14282.2426,0
6.305404,12744.6289,8409.4988,-9272.7899,-9898.3083,0
6.305413,-14935.5469,4068.6952,-7660.3516,-8439.0569,0
6.305480,7197.2656,-12292.3383,6908.8691,-150.7346,0
6.305481,12870.1172,-12346.2024,6651.1587,-441.7270,0
6.305486,1045.4102,-12708.9014,4915.8431,-2401.1496,0
6.305558,-8985.8398,-4960.4746,9424.5170,-4588.9360,0
6.305561,15190.9180,-5601.7640,9013.7041,-5037.4399,0
6.305575,14448.7305,-8706.0510,7025.0837,-7208.5108,0
6.305635,-6990.2344,5529.4404,4308.7033,-4846.4060,0
6.305639,-15324.2188,6665.2097,8307.6017,-3602.7314,0
6.305668,-422.8516,-6527.8529,13948.5302,6194.7708,0
6.305707,15064.9414,5267.1206,-5253.5955,-11187.6039,0
6.305731,-15082.0312,-6031.4293,-9709.9060,-3766.5327,0
6.305762,-3049.8047,-14819.0398,2625.7903,-8340.7620,0
6.305778,15013.6719,-13381.9105,-4671.0881,-12668.1542,0
6.305808,-15472.6562,-232.7701,-2907.9084,-11785.8941,0
6.305850,15001.9531,9123.7012,-3347.0619,-13211.8404,0
6.305857,-14299.8047,6647.6004,-5597.5568,-10892.7586,0
6.305890,-15738.2812,-2296.4540,937.1526,-2509.0398,0
6.305923,14956.0547,12529.9187,-2461.7189,-11472.5957,0
6.305953,14824.2188,5633.3246,-9985.6988,5167.1790,0
6.305969,-14323.7305,876.1379,-6469.2905,6752.8942,0
6.305994,-15013.1836,14918.7837,-7128.7001,1331.3362,0
6.306046,8571.7773,-379.2414,-7291.2382,11870.9747,0
6.306047,-14855.4688,-625.3914,-7180.0748,11821.9294,0
6.306065,-4990.7227,-7878.7418,-3848.6003,10376.7010,0
6.306139,2694.8242,-1557.2112,-6831.3225,-8728.5280,0
6.306168,-15848.1445,-7573.2547,-7692.1674,3993.2886,0
6.306235,-12548.8281,-5599.4376,-9154.8318,-235.1460,0
6.306244,15761.2305,-9518.1136,-7265.1181,4200.3660,0
6.306328,5577.6367,15812.4824,2737.0199,13310.8370,0
6.306334,-15972.6562,15807.4363,1297.9983,13005.7323,0
6.306379,3088.3789,15953.3897,-9894.2544,-3887.6548,0
6.306410,15159.6680,15940.9481,-8381.3276,906.1955,0
6.306421,14441.4062,15936.4177,-9239.4582,2651.8375,0
6.306489,15565.9180,-10152.1510,-11763.5536,2002.1843,0
6.306518,2938.4766,-15062.7205,3566.4907,11004.6236,0
6.306569,3114.2578,-4190.1094,-10912.5451,10625.6756,0
6.306595,15933.1055,4163.9550,3993.5529,1215.7954,0
6.306616,9940.9180,-14624.5959,-2538.0283,-6341.8828,0
6.306672,15464.3555,-10610.4140,-13707.2924,-10185.6981,0
6.306710,-4434.5703,-15638.8335,-3389.7720,-10665.0839,0
6.306747,14995.6055,-15612.4249,-9545.1062,-6777.0263,0
6.306771,-8893.5547,-14547.8329,-3312.7720,-7618.3647,0
6.306806,-4430.6641,-8681.2942,15268.9954,-11361.4534,0
6.306824,14815.9180,-5741.1507,7969.8225,-12226.5699,0
6.306899,15956.5430,-14807.3408,6817.6596,-2034.2269,0
6.306907,-1555.6641,-14771.6070,3900.3329,-252.7799,0
6.306977,15558.1055,-9080.3316,-5784.9907,-2134.0888,0
6.306995,-10932.1289,-14570.8923,-8735.4720,-6226.4104,0
6.306998,7072.2656,-13124.3340,-9091.2843,-6931.0885,0
6.307052,-15863.2812,-12438.7965,-12534.6777,6253.9353,0
6.307084,4322.7539,-12544.3157,-14715.9506,-8966.5656,0
6.307111,-12911.6211,-9716.5366,-13105.1876,-13341.7054,0
6.307127,-15722.6562,-12208.9780,-13004.5638,-14218.5746,0
6.307165,-7173.8281,1901.2222,-13414.8481,-10602.6488,0
6.307201,-15394.5312,8018.0490,-13839.1549,4113.3932,0
6.307280,-15808.5938,-15847.2105,2157.9227,1086.3591,0
6.307287,3197.2656,-15844.6006,255.3129,-1155.7648,0
6.307300,-14921.8750,-12688.8547,-3501.3590,-5582.8016,0
6.307356,-14957.0312,-4122.1644,-6145.9824,7817.7013,0
6.307370,8320.8008,-12812.2605,5597.8910,500.5051,0
6.307403,-938.4766,-8419.0423,15097.2249,-3722.8258,0
6.307432,-15074.2188,-6358.5576,9925.3049,3860.2510,0
6.307459,-4558.1055,-15586.0004,11665.0249,-109.8958,0
6.307501,7060.5469,-2777.1927,-14555.4544,5498.2109,0
6.307517,-14542.9688,5402.2461,-8865.6350,2909.0270,0
6.307546,-5182.6172,-12035.8756,-10379.8346,-8440.1177,0
6.307592,-14230.4688,-11179.3474,4929.9590,2659.0655,0
6.307603,-2951.6602,-13518.5054,-3782.7272,-1751.0399,0
6.307627,-7181.1523,10373.0882,-9961.2872,-11102.0710,0
6.307670,-14082.0312,-10648.0422,-5293.9339,-908.8000,0
6.307699,7052.7344,-7634.1708,-7874.7085,-10266.7058,0
6.307715,-12809.0820,3311.3431,-11764.0988,-8600.1110,0
6.307747,-15378.9062,-6609.4181,-14929.9350,14733.9090,0
6.307794,-4932.6172,-12981.0494,-11506.7770,-11761.2790,0
6.307798,-15058.1055,-12634.4654,-12720.0676,-11329.1994,0
6.307821,15949.2188,-8927.1281,-10246.4903,-8885.2491,0
6.307881,-8806.6406,-8384.2432,-12116.5018,-9352.7061,0
6.307888,15064.9414,-7290.8687,-10950.5602,-8327.8697,0
6.307895,-15792.9688,-6163.4281,-9748.2915,-7271.1027,0
6.307964,-9682.6172,-455.5056,-3268.6746,1641.4072,0
6.307971,-15550.7812,-3066.7413,-2401.5765,597.1652,0
6.307988,3083.9844,7730.7701,-1032.2289,-1653.4974,0
6.308045,-15582.0312,7225.6837,-12884.1183,-8324.6126,0
6.308047,11689.4531,7888.6712,-12902.1072,-8603.2429,0
6.308082,-10958.0078,-8003.7275,-13025.9099,-12485.0170,0
6.308118,15612.7930,-4974.0477,2864.9611,4987.1938,0
6.308134,7554.1992,10953.8555,2926.7551,8274.8385,0
6.308183,-11010.7422,-12382.8046,-6404.6699,12498.7626,0
6.308194,-15777.8320,-11776.1264,7690.2979,7007.7258,0
6.308224,-5562.9883,12952.1941,15249.3921,-7792.4116,0
6.308271,15878.4180,13118.0434,-2868.2917,10564.7073,0
6.308281,11030.7617,14067.5264,-9220.0351,4963.0656,0
6.308308,-553.7109,6396.7643,-1306.5787,-9475.1268,0
6.308355,15472.1680,10114.4206,14138.2688,4282.2172,0
6.308393,1070.3125,10435.5110,2490.4407,-13745.3999,0
6.308424,3099.6094,4706.8267,9629.6139,-2528.7086,0
6.308431,15026.8555,4808.7095,6892.3390,158.4474,0
6.308479,-1056.1523,14330.8556,-11345.2684,-11866.4639,0
6.308507,-15996.0938,14220.6943,-6915.1348,-7508.9613,0
6.308518,5082.5195,15096.5968,-248.6604,-5877.2973,0
6.308562,-8557.1289,-5006.4197,-11393.5288,-15165.7770,0
6.308585,15761.7188,828.7987,-9988.8920,-15428.7656,0
6.308627,-2901.3672,8676.0986,-13042.0277,-9884.8006,0
6.308645,-11935.0586,2837.0115,-8940.9572,-1117.2933,0
6.308661,-14886.7188,4352.2840,-7756.1405,6579.6696,0
6.308721,-922.3633,820.1107,-11019.9375,-7182.1289,0
6.308734,-5682.6172,-3766.7003,-11305.3148,-4210.5306,0
6.308735,-15207.0312,-3906.7453,-11314.0280,-4119.8014,0
6.308814,5087.4023,-6787.1142,-3794.0163,654.6984,0
6.308815,11939.4531,-7059.0366,-3923.3230,638.0006,0
6.308849,-15058.5938,2513.5126,-9278.7629,-53.5624,0
6.308907,-8914.0625,-1591.8758,-15031.2386,-6049.8659,0
6.308926,-14917.9688,-9105.4830,-9779.4491,809.9362,0
6.309000,-15191.4062,14772.9492,15577.8068,-13651.8818,0
6.309000,13076.1719,14772.7909,15581.1543,-13652.3580,0
6.309033,14065.4297,-2026.1207,15727.8865,-13673.2296,0
6.309073,-15269.5312,-3892.8053,-11664.4779,1451.7790,0
6.309096,-14902.3438,10687.8870,566.0083,-8627.1453,0
6.309149,-13472.1680,-14835.9299,-9123.5858,7665.6396,0
6.309152,4814.4531,-15031.6083,-8128.0361,5883.9194,0
6.309189,1125.4883,-9381.7182,-10663.0784,-10351.5757,0
6.309233,-312.5000,-6355.7202,-888.6913,13561.1562,0
6.309236,-14269.5312,-6248.8106,-785.5396,14795.6836,0
6.309282,3145.9961,-7127.2471,10381.1311,-14044.2915,0
6.309310,-7455.0781,2687.1383,-12713.4699,-13769.4652,0
6.309319,-14746.0938,7017.1581,-10502.7344,-13677.9855,0
6.309386,13182.1289,-1437.4853,-9732.5012,-9742.6819,0
6.309387,-15198.7305,-1208.0814,-9395.3481,-9637.2248,0
6.309392,-15230.4688,336.6294,-7125.0983,-8927.1200,0
6.309465,-15808.5938,-15265.6070,-3785.4708,-5885.7511,0
6.309468,-9688.9648,-15264.9801,-4355.1432,-6461.0004,0
6.309482,-2796.8750,-15261.9459,-7112.7539,-9245.6074,0
6.309541,-15691.4062,-13114.6781,3090.9947,-1937.9932,0
6.309545,5687.0117,-13490.8783,3002.3088,-3100.4725,0
6.309575,1231.9336,6730.3074,-6647.5780,-12258.3293,0
6.309614,-14871.0938,-11155.3153,8313.5324,-10919.3715,0
6.309638,15813.4766,-9665.0086,1032.6650,-13055.5549,0
6.309668,-6807.1289,3751.3121,-14861.0775,-11285.5984,0
6.309685,-15902.3438,-1515.6423,-3577.7237,-6895.6117,0
6.309715,6189.9414,-13091.6774,-5000.4050,4945.5519,0
6.309756,15761.2305,-12312.4867,10610.2131,10010.2247,0
6.309763,11209.9609,-13456.4732,10557.1610,5620.5623,0
6.309796,7438.9648,-892.6523,-4553.7639,-9568.3818,0
6.309829,15308.1055,-13085.9184,-13703.2852,-4124.7030,0
6.309859,-12808.1055,-4902.0183,-2685.0866,-11684.1633,0
6.309876,1570.3125,9012.1353,10442.4240,-12913.2162,0
6.309901,-15746.0938,-8013.8502,14639.0354,-12377.6074,0
6.309952,-848.6328,-3260.3827,14059.9472,-10959.3779,0
6.309953,-11556.1523,-3043.5828,14728.4951,-10870.2531,0
6.309971,-15699.2188,3344.9026,7677.0013,-8243.9962,0
6.310046,9148.4375,-6948.2357,-14780.0268,-6753.0592,0
6.310075,-5188.9648,-8337.0710,-6120.9471,-10010.9134,0
6.310142,9210.4492,-4439.9414,11959.3609,11041.8466,0
6.310150,-1813.9648,-5529.9194,8814.0548,11590.3463,0
6.310234,15240.7227,-8609.1799,14744.9637,9360.2979,0
6.310240,62.0117,-9290.9300,12089.6694,8563.4573,0
6.310286,-14308.5938,-1736.0047,-8562.3665,738.2055,0
6.310316,-12689.4531,-939.5533,-2402.2256,-4248.0972,0
6.310327,5048.3398,-649.5320,194.8661,-6063.8192,0
6.310395,-8064.9414,7872.8744,-2106.8421,11143.2773,0
6.310424,10999.5117,-941.9253,9390.3764,3165.9033,0
6.310475,-14339.8438,-14752.4986,1459.8187,-6645.9076,0
6.310501,-5688.4766,-14302.8084,-9473.7874,-7460.3436,0
6.310522,7056.6406,3577.0691,-7461.0559,-8114.4694,0
6.310578,-9692.3828,12499.4314,3889.5633,-8334.1755,0
6.310617,3033.6914,12668.7909,14706.6976,-15575.5950,0
6.310654,12434.0820,11114.7049,9826.7106,-7206.9216,0
6.310677,-14449.2188,8607.6921,3410.5070,-3994.8896,0
6.310712,7133.7891,12519.6053,63.8645,-1410.9588,0
6.310730,14934.5703,14480.1457,3503.7923,215.6269,0
6.310806,-7065.4297,-13096.4799,-7637.6376,6115.6591,0
6.310814,3129.8828,-12764.0210,-5117.5713,8692.0115,0
6.310884,-7313.9648,-12727.0574,-8686.1353,-4491.0304,0
6.310901,-14824.2188,-14445.1013,-10608.7589,-9715.8611,0
6.310904,-6809.0820,-13262.3303,-10713.2309,-10615.5517,0
6.310958,5188.4766,-14800.4113,-3253.6584,13161.7310,0
6.310990,3176.7578,-5659.3087,13092.9017,6471.1390,0
6.311017,-14792.9688,9383.0041,11867.0338,-7030.5376,0
6.311033,9066.8945,9815.5154,3175.7898,-13262.1466,0
6.311071,-8788.5742,-13776.1518,-1209.9708,6645.9814,0
6.311107,7939.4531,-11755.4694,3603.4771,10803.5403,0
6.311187,5688.9648,3027.4430,552.0799,8794.2978,0
6.311193,13170.8984,2818.6091,353.1548,7967.3612,0
6.311206,-14214.8438,1821.9341,-39.6195,6334.5886,0
6.311263,13190.4297,-424.5056,6740.7210,14019.3698,0
6.311277,11099.6094,6528.9652,11866.4947,11169.1136,0
6.311310,-14855.4688,-8312.9357,6045.6727,2357.3461,0
6.311338,-9182.1289,-11085.0519,5797.3248,7251.2642,0
6.311365,-918.4570,12746.2026,11777.3213,10245.6517,0
6.311407,-15136.7188,-12618.7586,-592.0023,-653.0752,0
6.311423,-6432.1289,-13915.2503,2490.4458,27.0898,0
6.311452,3095.7031,12267.7980,5436.1826,1781.4834,0
6.311498,-1431.6406,-4403.9253,4586.1687,-9561.0166,0
6.311509,-14777.3438,-11041.3698,-5025.9427,-7483.6959,0
6.311533,5111.8164,-15387.8975,-8429.6998,-3079.0190,0
6.311576,-3432.1289,-3352.2586,10857.6798,8229.1357,0
6.311605,-15089.8438,-15712.2497,-9098.1737,12641.1626,0
6.311621,1054.6875,-15375.6366,-12136.2772,9663.1253,0
6.311653,6439.4531,-3634.5439,-1100.4474,-15689.6201,0
6.311701,-15019.5312,-2468.2443,1507.1961,-3309.8616,0
6.311705,-906.2500,-4705.5531,3818.2446,-1832.7390,0
6.311727,5189.4531,-600.3090,8715.3879,6522.2356,0
6.311787,-4902.3438,-12527.3679,-11868.3269,8478.5333,0
6.311794,-14644.5312,-11999.2782,-11269.4540,6366.7235,0
6.311801,3313.4766,-11454.7350,-10651.9221,4189.1164,0
6.311870,7058.1055,-2711.5162,15108.0580,14176.1527,0
6.311878,5939.4531,-1245.3168,14482.0113,13991.9584,0
6.311894,-14972.6562,-6219.8906,11775.3500,13594.9629,0
6.311951,4563.4766,3831.1218,3731.7022,13537.1280,0
6.311953,-1008.3008,5082.3496,5558.9253,13445.5932,0
6.311989,-15496.5820,-200.8287,15171.6954,12010.1550,0
6.312025,-4188.4766,-12313.7903,15497.3607,12310.9359,0
6.312040,10890.6250,-5452.9396,15630.0792,11845.2580,0
6.312089,15448.7305,-12097.3475,-6721.4950,7257.6062,0
6.312100,-1939.9414,-13378.1125,-9239.8381,3760.4643,0
6.312130,-10971.6797,1938.1679,462.7294,-5665.4753,0
6.312177,-188.9648,-12703.9431,10291.7809,13244.5673,0
6.312188,-15292.9688,-14221.6357,5989.3068,13086.0912,0
6.312215,-12871.0938,-1857.8986,4928.3860,12677.6203,0
6.312261,-8187.9883,-15315.1042,-4573.0717,-11103.8046,0
6.312299,-14867.6758,-9721.5086,8522.3838,-1784.0456,0
6.312330,-14410.1562,-7847.7667,-682.4004,-3796.7527,0
6.312337,-15066.8945,-10073.9900,-675.9505,-4319.3013,0
6.312385,5075.6836,-6676.1304,-2857.9235,12210.7040,0
6.312413,937.0117,-5458.8745,7402.0339,7662.4653,0
6.312424,-14636.7188,-2190.2890,791.2787,5959.3803,0
6.312469,9074.2188,-627.7937,-2306.3224,11620.7595,0
6.312492,3314.4531,11271.5990,8013.1499,12699.2775,0
6.312533,-14152.3438,-7615.5672,5468.3367,10314.1917,0
6.312551,-12938.4766,-13155.0063,15126.3357,478.4489,0
6.312567,-5557.1289,-12096.3838,15348.8483,-8156.3139,0
6.312627,-14457.0312,-15354.0120,-6782.3321,9024.9023,0
6.312641,-8950.1953,-15202.9700,-8251.7792,10678.2384,0
6.312641,-5183.5938,-15198.3583,-8296.6445,10728.7182,0
6.312720,-14808.5938,-232.0270,-7832.7749,2138.6930,0
6.312721,13025.8789,-417.3227,-7792.0530,2118.0454,0
6.312756,11316.4062,-5624.1469,-6105.4944,1262.8935,0
6.312814,-14582.0312,13594.8279,5193.6861,5275.4622,0
6.312832,-15683.1055,15455.9099,6336.2415,-3022.3177,0
6.312906,15691.8945,12713.3789,-3312.7462,8636.5894,0
6.312907,-14667.9688,12717.1796,-3261.7925,8660.7247,0
6.312939,7028.3203,8928.3170,-1028.3228,9718.6558,0
6.312979,-14683.1055,-11501.6392,8523.6666,3710.3900,0
6.313002,-14457.0312,-4455.4490,1698.9396,7451.8912,0
6.313055,5443.3594,8734.3674,5709.3628,-8506.3160,0
6.313058,15046.3867,8032.9104,4601.5760,-6490.8357,0
6.313095,-13972.1680,-3014.3705,9402.5689,8604.7182,0
6.313139,4912.1094,-581.3190,-8499.2981,14318.7698,0
6.313142,-7307.6172,-2852.2225,-7512.7724,15377.4408,0
6.313189,-13690.9180,9861.7115,-3698.5598,2981.5734,0
6.313216,14709.4727,13603.4401,-13376.6488,5086.2870,0
6.313226,-9182.1289,10914.0109,-11028.8574,5786.8692,0
6.313293,-13034.6680,1905.3903,15117.8345,8228.7376,0
6.313293,4828.1250,1714.2541,15121.0594,8206.9945,0
6.313299,-14309.0820,427.2225,15142.7748,8060.5854,0
6.313371,3565.9180,12877.6192,-6751.3104,-233.8586,0
6.313374,11020.0195,12807.4552,-6141.6697,-256.7150,0
6.313388,-12628.4180,12467.8127,-3190.5846,-367.3559,0
6.313448,5813.4766,-7469.0421,7117.9259,-2343.7278,0
6.313451,-12998.0469,-9109.3792,9033.8294,-3697.0437,0
6.313481,-12237.7930,-3484.9413,12853.1991,-14358.2857,0
6.313520,-12684.0820,9025.9952,5231.8307,-7906.7257,0
6.313544,-8982.4219,8561.5670,8569.4805,-12643.2167,0
6.313574,-12917.4805,-3462.2330,9199.3604,-4502.6070,0
6.313591,3813.9648,5349.0226,-1597.1526,-1397.4445,0
6.313621,15058.1055,-7550.5842,-1887.9538,-4071.7613,0
6.313662,-4688.9648,-4544.1745,2631.5057,-955.5568,0
6.313669,-12683.1055,-8174.6652,-1399.3865,-3654.0966,0
6.313702,7027.8320,4606.1139,-3715.2929,-11617.7045,0
6.313735,-11064.9414,1757.2441,10169.2372,-4217.5788,0
6.313765,-12964.3555,14046.3940,-5941.1322,11828.4610,0
6.313782,15121.0938,12464.9335,-1428.5892,10235.7602,0
6.313807,6313.4766,542.4935,4651.1586,-1744.9318,0
6.313859,-13729.9805,1281.4766,-3077.7508,-9346.5018,0
6.313859,13080.0781,1555.5354,-3607.5239,-9291.1521,0
6.313878,-14683.5938,9631.2782,451.6842,-7660.1536,0
6.313952,-13394.0430,6084.1199,13534.1539,-11482.5663,0
6.313981,-8998.0469,11311.6487,13578.6671,-7977.3094,0
6.314048,-12737.7930,11333.9997,4536.4053,6199.7762,0
6.314057,-7039.0625,11392.5224,5630.1299,7147.8971,0
6.314141,-11979.4922,4689.1327,-13058.1058,-7800.9948,0
6.314146,4985.8398,6262.1516,-11156.6192,-6678.9024,0
6.314192,-1930.1758,-4682.3373,3632.5400,-6837.6756,0
6.314222,-7023.9258,2477.7550,12289.8151,-5371.7062,0
6.314233,-15003.9062,5085.0450,12085.8882,-4837.8852,0
6.314301,-7016.6016,-3129.2134,4905.9541,2770.2478,0
6.314330,-15496.0938,-2692.3410,4548.4166,-4715.6612,0
6.314382,-6808.1055,7395.5393,-12463.9659,-8328.6485,0
6.314408,-7008.3008,2411.6722,1346.6608,-1291.6651,0
6.314428,-15261.7188,-3763.4660,-2382.6700,4360.1875,0
6.314484,-5072.7539,4005.3535,-3649.0599,-5079.8088,0
6.314523,-15441.4062,2283.4911,4239.7683,8827.2899,0
6.314560,4971.1914,-10844.7694,4555.1632,-4469.1995,0
6.314583,-6557.1289,-9003.7790,1580.9376,-6949.7777,0
6.314618,-13964.8438,-9627.5446,11039.7392,-6012.7118,0
6.314636,12979.0039,-9940.1584,11525.3185,-7220.1860,0
6.314712,-9019.0430,-3933.1781,-6503.7658,-9571.8840,0
6.314720,-13464.3555,-3505.8273,-6260.6151,-9342.4985,0
6.314790,15000.9766,337.7848,63.9233,-6789.2670,0
6.314807,-8308.1055,4777.0581,1929.1231,-3919.9224,0
6.314811,-12933.1055,3838.7593,2348.1401,-3425.8351,0
6.314864,13023.9258,-707.7305,1834.0369,-2381.7639,0
6.314896,-12862.7930,-6816.2454,1976.6502,7687.8689,0
6.314923,13815.9180,-13044.3019,8149.1219,-2810.6962,0
6.314939,5060.0586,-13926.7768,1423.1931,-9183.2173,0
6.314977,-12988.2812,-4633.1387,-6440.6747,7247.6629,0
6.315013,11013.1836,-10109.8468,-7341.6664,7387.3533,0
6.315093,-8959.4727,7484.2227,-13626.6462,-8791.5204,0
6.315100,-13323.7305,7317.5144,-12622.9890,-8428.0899,0
6.315113,-8683.1055,4657.2189,-10641.2843,-7710.5025,0
6.315169,9060.0586,5381.2487,4634.2855,9643.3597,0
6.315183,-13808.1055,11215.1293,-4031.1314,4310.1738,0
6.315216,-5430.6641,-10819.1666,-6275.2001,-8697.0403,0
6.315244,-8937.0117,-4367.3765,-10667.5047,2369.5689,0
6.315272,-14457.0312,12802.3612,-8548.8854,12333.8745,0
6.315314,-13307.1289,-1637.9699,-4373.4644,-9419.2935,0
6.315329,-14926.2695,6472.8388,-1690.3768,-8234.2496,0
6.315358,-14089.8438,-12751.4486,239.3910,-1018.0434,0
6.315405,3083.4961,1372.9090,-2955.1129,-8220.5068,0
6.315416,-14559.0820,7202.7451,-1012.9016,-2353.9270,0
6.315439,-14363.2812,13868.4875,6491.7062,10085.3607,0
6.315483,7086.9141,-7523.4244,-677.6118,-12007.6125,0
6.315512,14565.9180,1026.4342,828.2926,-14016.5197,0
6.315527,-14847.6562,7038.5320,4327.4720,-11667.3371,0
6.315559,-12913.0859,-12851.7270,3368.3473,4252.4032,0
6.315607,-12931.6406,-1427.4066,-2044.0849,-14199.7488,0
6.315611,-15011.7188,460.4238,-2441.0174,-13965.1974,0
6.315634,3016.1133,-9050.7883,-2656.2785,-12638.5160,0
6.315694,-13824.2188,-3002.4556,796.3227,-11280.4923,0
6.315700,-12308.5938,-5911.2959,209.3337,-11419.3869,0
6.315707,-4958.0078,-8910.7664,-395.9439,-11562.6091,0
6.315776,-14917.9688,-8480.9981,-4644.2110,4264.7761,0
6.315784,-12958.4961,-10023.4482,-5378.2716,1020.0999,0
6.315801,-12933.1055,-13006.9805,-5803.2100,-5973.1746,0
6.315858,5010.7422,994.9690,-7928.0800,-4760.0996,0
6.315860,15487.7930,282.0145,-7593.0437,-4303.0590,0
6.315895,-1687.5000,-5962.7557,-8599.4561,2252.3789,0
6.315931,10973.6328,6575.1928,-8263.1991,-8317.3419,0
6.315947,14815.9180,-12064.6457,-7902.8699,-4954.6101,0
6.315995,14933.5938,-3349.3083,-3538.1463,-12160.2730,0
6.316007,-7029.7852,453.3694,-7375.9292,-12301.7124,0
6.316036,-15332.0312,-437.7922,-8378.3777,-12682.9378,0
6.316083,-13031.2500,3099.1580,-9054.6525,-9290.0621,0
6.316094,14691.8945,9650.8937,-10362.1985,-3973.8045,0
6.316121,-14089.8438,1411.3904,-2512.6629,9728.8126,0
6.316167,978.0273,2070.1497,-1584.2782,-11925.7285,0
6.316205,-13644.0430,-12412.0388,-6296.5795,-14892.2349,0
6.316236,-11557.6172,-7075.3763,5543.5193,-13262.8827,0
6.316243,8961.4258,-1880.0866,2205.1866,-12887.8187,0
6.316291,-14761.7188,-3669.7716,-8010.4368,-13804.2246,0
6.316320,6979.0039,-12200.2127,-6802.6139,-12865.7925,0
6.316330,-8807.6172,-4874.1692,-7920.7471,-12514.3973,0
6.316375,-14722.6562,14316.8535,-6921.2532,3622.2368,0
6.316398,3037.5977,14488.1762,-7071.2931,-5558.9909,0
6.316439,-5807.1289,8368.5562,-6012.5354,-5142.6537,0
6.316457,-14792.9688,11106.6527,14506.1144,2550.7221,0
6.316473,-10932.1289,-7644.7799,9197.7991,9304.7088,0
6.316533,-6181.1523,3657.5977,-4578.1845,7968.7500,0
6.316547,-15066.4062,9126.9420,-4232.6852,8397.3927,0
6.316547,-2946.7773,9293.9326,-4222.1364,8410.4800,0
6.316627,-11557.6172,-14900.2682,-12560.9683,-14181.1829,0
6.316627,-15496.0938,-14895.1130,-12566.4892,-14185.7651,0
6.316662,7089.8438,7791.7594,-12795.1470,-14375.5448,0
6.316720,-11433.1055,1753.5885,-5046.9361,-6656.9327,0
6.316738,-10923.3398,-2592.3806,-6295.6727,1511.3300,0
6.316812,3111.8164,3425.9033,-4493.0097,4200.8291,0
6.316813,-6181.1523,3486.7686,-4635.5347,4424.0684,0
6.316846,-15722.6562,-8726.6293,-10882.8836,14209.3878,0
6.316886,-10933.5938,-6422.4947,-11379.8854,-10953.7775,0
6.316908,-8556.1523,8676.3101,-12556.8608,-12193.0858,0
6.316961,3117.6758,-13326.1151,-1175.1629,-8164.3812,0
6.316964,-15261.7188,-13272.3814,-874.3850,-8222.2877,0
6.317002,695.8008,-4952.2442,8029.0769,-11520.5439,0
6.317045,14401.8555,-3416.7971,-7652.5262,-15345.9383,0
6.317048,15083.0078,-5308.7799,-6764.2866,-15115.4813,0
6.317095,4946.2891,7463.5830,-11127.3158,-8865.7427,0
6.317123,11463.3789,5600.9593,-2468.0132,-9046.0075,0
6.317132,7100.0977,677.8495,-2038.4277,-9106.0111,0
6.317199,14199.2188,-11507.5857,-14199.2360,-14354.7156,0
6.317200,13448.2422,-11614.2221,-14152.7095,-14341.2212,0
6.317205,-8974.1211,-12332.2674,-13839.4193,-14250.3556,0
6.317277,13046.8750,4056.0633,-13748.5448,-6257.4156,0
6.317280,-15996.0938,3896.0495,-13611.3627,-6868.9899,0
6.317294,-4172.8516,3121.4711,-12947.3059,-9829.4350,0
6.317354,-8964.8438,8223.8583,-3356.5904,13538.2931,0
6.317358,-15832.0312,8396.7711,-1461.6819,13085.0793,0
6.317387,-3047.3633,-7266.4433,6578.9871,9514.7216,0
6.317426,-8975.5859,10431.7793,-5501.6358,7593.8917,0
6.317450,-15167.9688,3002.0194,5462.8826,4602.9183,0
6.317480,-11299.3164,-14940.0091,-7033.6471,-8705.2225,0
6.317497,5018.0664,-13409.4932,-8172.7629,-7518.7335,0
6.317527,-15199.2188,-2760.2745,-2651.2477,9680.5899,0
6.317568,-11023.4375,15403.5296,-2369.1927,-12916.0808,0
6.317576,-9924.3164,15270.0195,-5247.0990,-13055.2742,0
6.317609,-15066.4062,4983.1391,-7350.9335,-8840.0330,0
6.317642,14960.9375,8333.1223,6751.3554,-9431.1254,0
6.317672,15698.2422,-2161.1655,-9296.5885,10079.3444,0
6.317688,-13878.4180,-3875.4814,-2020.2448,10017.4909,0
6.317713,4995.6055,14383.3717,4942.1689,-1547.8673,0
6.317765,4196.2891,-283.2764,7595.8742,-2525.3013,0
6.317765,-15488.2812,-491.3428,8181.4707,-2664.9285,0
6.317784,14999.5117,-6622.4767,7244.1625,-6779.3499,0
6.317858,12949.7070,-13267.4404,-7490.7884,-11761.2034,0
6.317887,-15965.3320,-12421.4243,-9297.8441,-4515.0790,0
6.317954,-3170.4102,-13489.1773,-9173.9276,-1681.5014,0
6.317963,15448.7305,-13093.5324,-7015.8697,2545.6140,0
6.318047,-14916.0156,-3476.0133,4709.4295,11421.5718,0
6.318053,15323.7305,-5426.6492,3063.3145,11062.8346,0
6.318098,-873.5352,15768.3906,-9739.6457,12799.2301,0
6.318128,15534.6680,15749.9227,8474.8664,10946.5499,0
6.318139,15689.4531,15743.1978,4483.6288,10271.9112,0
6.318207,15901.8555,-10162.0227,3313.5476,-5049.0853,0
6.318237,12063.9648,-14768.9019,9419.2709,10903.3033,0
6.318288,-4923.8281,-10367.2960,-11126.0714,14010.3327,0
6.318314,15839.3555,-8177.4206,13005.0653,3464.6474,0
6.318335,11566.4062,-15565.6145,3029.9474,-5005.2686,0
6.318390,15206.5430,-13843.5441,-6340.4293,-9531.8741,0
6.318429,8814.9414,-7113.1936,-9759.4166,-9395.3305,0
6.318466,15456.5430,-4836.4528,-9560.1418,6693.8272,0
6.318489,-10944.8242,-14407.7555,-3317.9903,2486.8233,0
6.318525,-54.1992,-8911.2698,14949.1313,-6506.1850,0
6.318542,-15917.9688,-6156.5865,8085.4427,-3634.5217,0
6.318618,-15886.7188,-14728.7599,4662.7833,1834.0562,0
6.318626,3445.8008,-14716.2946,2246.3663,4407.1260,0
6.318696,-15589.8438,-11970.6886,-6316.0009,-6774.5395,0
6.318714,9070.3125,-14361.5904,-8423.1264,-8876.5643,0
6.318717,12324.7070,-13540.1101,-8767.7549,-9238.5229,0
6.318771,-15511.7188,-6301.2117,3358.5007,966.0476,0
6.318803,-9800.7812,-13669.6690,-6463.8021,-9718.3809,0
6.318829,-2938.4766,-12464.3150,-12906.1061,4052.0025,0
6.318846,-15425.7812,-13751.0362,-11710.1391,12018.0576,0
6.318883,-682.6172,-1365.6054,-12442.4160,-12158.8406,0
6.318920,-15894.5312,10505.5194,-14200.6624,-12944.4236,0
6.318999,-15566.4062,-15809.2506,6724.5316,-10408.2850,0
6.319006,9945.8008,-15858.8390,4326.2202,-10612.5916,0
6.319019,9066.4062,-12316.9231,-409.2063,-11015.9916,0
6.319075,-14800.7812,-4069.7735,7183.3816,199.8248,0
6.319089,10445.8008,-12722.3522,-4055.6088,-4279.4680,0
6.319122,3056.1523,-3632.3505,8189.6880,-689.7507,0
6.319151,-14730.4688,7446.8378,10007.9417,4359.7887,0
6.319178,-54.1992,-15880.6868,7303.8063,-2999.6936,0
6.319220,-8908.2031,-8130.6592,12713.5665,8329.0356,0
6.319235,-15066.4062,-6484.4182,-173.8504,5267.5760,0
6.319265,-3805.6641,-12778.5326,-9932.5569,-8141.4635,0
6.319311,-14566.4062,-11774.9903,-391.5779,4129.4702,0
6.319322,-928.7109,-13624.0622,-5048.5225,-790.0475,0
6.319345,-4555.6641,8451.7296,-10065.6674,-11221.2184,0
6.319389,-14542.9688,-9742.2505,-10141.8282,-637.5072,0
6.319418,-963.3789,-12438.3664,-7788.7710,-8772.7871,0
6.319434,-12308.1055,-8861.4610,-11434.6769,-8779.3765,0
6.319465,-14792.9688,-5608.9684,-14637.9403,6854.4047,0
6.319513,-14914.5508,1388.0522,-11761.8693,-9920.8605,0
6.319517,7815.4297,3732.0428,-13006.6974,-8894.4180,0
6.319540,-15902.3438,-5821.7580,-14326.7127,-3088.6029,0
6.319600,-5937.0117,-6737.1351,-12599.8762,-8457.7314,0
6.319607,9080.0781,-5345.8902,-12430.1403,-7117.2026,0
6.319614,-15785.6445,-3911.2985,-12255.1160,-5734.9072,0
6.319682,-12184.0820,-389.7866,628.5326,9075.6350,0
6.319690,-15355.4688,-2885.6745,-585.4293,9120.8019,0
6.319707,-4953.1250,7620.0776,-4103.3961,9218.1504,0
6.319764,-15933.5938,13101.1500,-523.8718,-8387.7166,0
6.319766,-5314.4531,13104.2399,903.4011,-8687.4721,0
6.319801,-12989.2578,8518.8901,-3845.4796,-12690.9100,0
6.319837,15613.2812,-395.1992,6701.9650,-2998.2636,0
6.319853,11805.6641,11702.7653,9089.4314,-6670.6437,0
6.319902,-15033.2031,-13672.3784,14135.9783,2423.9454,0
6.319913,15737.7930,-14210.5639,11332.6701,-975.8496,0
6.319943,-15558.5938,10402.6048,11598.1823,-10139.4074,0
6.319990,15159.6680,9939.6773,-10438.3256,8110.7434,0
6.320000,9083.0078,12633.0378,-13201.6254,2963.9789,0
6.320027,-931.1523,12317.8388,-2161.5824,-10301.7708,0
6.320074,15042.4805,8470.9473,2392.5436,-9650.9981,0
6.320112,6195.3125,7666.4471,-1199.9151,-13495.0621,0
6.320142,9093.2617,1480.7149,9260.0014,-7648.5103,0
6.320149,15261.2305,3756.4122,5534.3692,-6148.0967,0
6.320198,-5680.6641,11166.6254,-13120.6469,9349.5777,0
6.320226,15433.1055,9079.7465,-1770.7022,-2466.4265,0
6.320236,-916.9922,12896.1482,-4024.5417,-6890.9214,0
6.320281,-11807.1289,-1269.9144,-9739.4125,8397.4980,0
6.320304,-15519.5312,3905.3508,3755.6055,12177.7371,0
6.320346,5082.0312,8721.2982,-14442.0524,-11603.7424,0
6.320364,-15182.1289,2829.9558,-9325.3091,-11333.3887,0
6.320379,-14925.7812,4435.9747,-8012.1197,-11096.0462,0
6.320440,3104.9805,13614.5234,-11089.7317,-8221.6797,0
6.320453,-15058.5938,13285.5372,-11514.1689,-6138.5564,0
6.320454,-14636.7188,13275.4926,-11527.1279,-6074.9542,0
6.320533,-10939.4531,-5415.4615,-8550.1058,161.8031,0
6.320534,14440.4297,-5628.1039,-8598.7790,92.4024,0
6.320568,-14503.9062,1414.6318,-10614.6546,-2781.9391,0
6.320626,-6905.7617,-2696.0386,15073.8414,-5746.6082,0
6.320645,-14917.9688,-10924.2710,6923.5952,1807.0766,0
6.320718,-14472.6562,15270.9961,8045.7793,-12921.5755,0
6.320719,9106.9336,15278.8350,7722.3547,-12924.9880,0
6.320752,9814.4531,4474.2142,-6454.4222,-13074.5681,0
6.320792,-14605.4688,-2799.7814,10440.2737,508.8145,0
6.320815,3116.2109,14648.5261,9542.6035,-2065.1776,0
6.320868,-13464.3555,-5520.9545,-7069.1231,-7763.0587,0
6.320871,11564.4531,-7327.1661,-5697.5022,-8256.9100,0
6.320908,3129.8828,-224.6894,-9200.2299,-6737.7314,0
6.320952,3548.8281,-1703.5746,5046.8163,-2619.1225,0
6.320955,-14730.4688,-3877.9412,4461.0251,-3132.9927,0
6.321001,7141.1133,-12730.5232,-9910.9475,-13347.2780,0
6.321029,-11330.0781,-9782.2521,-12802.3809,-13636.2775,0
6.321038,-14175.7812,-8987.0841,-11227.9297,-13732.4749,0
6.321105,5207.5195,-8470.5905,-9852.1129,-6698.9557,0
6.321106,-11571.7773,-8364.3762,-9532.0956,-6512.9819,0
6.321111,-15535.1562,-7649.1734,-7377.2318,-5260.7112,0
6.321183,-15996.0938,-15303.0501,6090.9526,-5753.9099,0
6.321186,2066.4062,-15314.0193,5054.1277,-6316.2737,0
6.321200,-775.3906,-15367.1181,35.1739,-9038.5053,0
6.321260,-15433.5938,-13220.1262,4432.2605,3854.6525,0
6.321264,1813.9648,-13595.5263,8338.8532,2025.8542,0
6.321293,-8752.4414,12314.2165,-1239.2381,-12381.1744,0
6.321332,-15761.7188,-1639.3168,-12727.3199,2457.5560,0
6.321356,14565.4297,-10360.7323,-5578.5871,-6306.2542,0
6.321387,1189.9414,4580.2841,-15283.9833,-9256.2338,0
6.321403,-15488.2812,4608.5683,-12246.5322,-7690.1730,0
6.321433,10439.4531,-10157.7049,-12740.1513,-8406.0868,0
6.321475,15237.7930,-8363.0122,-6559.1392,9139.4404,0
6.321482,-12776.3672,-11053.1529,-4457.5199,4872.9413,0
6.321515,9062.9883,6694.7163,-9343.5610,-11847.7691,0
6.321548,15339.3555,-11362.9837,-10372.6762,-7076.4719,0
6.321578,-8822.2656,-4814.9199,-3164.4334,-12116.9898,0
6.321594,3570.8008,9036.1217,10091.8208,-9256.4102,0
6.321619,15738.2812,-8831.2711,14427.4135,-145.1357,0
6.321671,9154.2969,-9154.3380,14018.7685,-12295.5847,0
6.321672,4814.4531,-9048.6339,14738.4232,-12242.1633,0
6.321690,15839.3555,-5933.8304,10323.3886,-10667.9834,0
6.321764,5204.1016,-2610.2950,-10644.3848,6894.6446,0
6.321793,-5688.9648,-3252.1218,-7227.2327,-5549.9423,0
6.321860,-14725.5859,7048.6155,5290.6827,8511.8821,0
6.321869,-6938.4766,7681.4788,3194.1529,9865.5133,0
6.321953,1327.6367,-1751.1540,-6506.3715,301.6847,0
6.321959,-15690.9180,-1644.5549,-6756.7879,1605.2407,0
6.322035,-2813.9648,-1162.7665,6568.1180,11560.8834,0
6.322046,-12972.6562,-165.8490,6454.7674,12197.0839,0
6.322114,-3064.4531,6841.6699,-2689.3899,-116.7114,0
6.322143,11065.4297,4040.8670,-2249.6181,5646.2527,0
6.322220,-4940.4297,711.4346,-2114.1831,9520.3134,0
6.322241,9071.2891,1692.2119,-3637.1960,6657.1899,0
6.322297,-10439.9414,1506.1154,-2766.1215,-12410.4154,0
6.322335,-12939.9414,-123.1927,1931.9530,-3031.9193,0
6.322372,-14692.8711,-2727.0191,6426.4874,6422.4528,0
6.322431,-2904.2969,-3181.6733,-8798.6351,1816.9623,0
6.322449,2935.5469,-9688.1217,-5153.4320,-363.6787,0
6.322524,4186.0352,-10832.8055,-2879.0342,-4232.8012,0
6.322532,9151.3672,-11192.0129,-4192.5509,-4776.5488,0
6.322602,3936.0352,-12002.8438,-8159.9518,14059.8508,0
6.322623,-8771.4844,-9931.6157,-10071.2692,14764.1743,0
6.322677,7564.4531,-6778.5023,4806.1364,-9521.3781,0
6.322709,15172.3633,-12205.0832,14860.4263,981.8863,0
6.322752,10690.9180,207.2805,6467.0421,3146.0524,0
6.322790,11105.4688,10375.8562,59.1093,871.6828,0
6.322826,6064.9414,9559.0359,-281.3762,-2192.6330,0
6.322905,6314.9414,2670.5770,-9261.1969,3144.4789,0
6.322912,-4881.8359,1835.3228,-9036.8559,3483.8527,0
6.322981,-14932.6172,8555.2178,3897.6469,3136.3465,0
6.322995,-2893.5547,7225.5446,2075.6793,3068.2579,0
6.323057,-11309.0820,9982.2341,-7155.7370,5051.2709,0
6.323084,13117.6758,9092.1354,-6311.4082,-397.9374,0
6.323142,14440.4297,5718.4879,-6317.5081,-9534.6135,0
6.323171,-6876.4648,2850.9823,-5797.1109,-2208.1807,0
6.323217,-9557.6172,-12476.4364,-5789.4891,-4508.4926,0
6.323252,-6896.4844,-6991.8926,-7705.3447,-3252.0684,0
6.323295,-10432.6172,-3418.0980,-7623.1748,-10299.2708,0
6.323340,-4927.2461,439.5434,-8358.6810,-7586.2296,0
6.323372,5312.5000,9259.5524,-9117.0834,1906.7012,0
6.323423,5075.1953,3114.1952,-8709.8652,-6958.2307,0
6.323446,4187.5000,507.1720,-7096.4288,-10216.0935,0
6.323506,14997.0703,8535.6861,11942.6505,10011.0923,0
6.323520,-1187.5000,7707.9876,6640.9616,9755.8244,0
6.323589,-10954.1016,12634.9579,-3766.2036,-6667.8622,0
6.323596,9439.4531,13586.8962,-2367.7568,-5600.5771,0
6.323670,4313.4766,-13918.1128,-7335.1004,-1463.4999,0
6.323672,6948.7305,-13950.4912,-6901.5116,-697.7951,0
6.323743,1063.9648,3006.9323,-6062.8766,-14331.7907,0
6.323759,-1099.6094,-384.8797,-4865.8574,-13998.6494,0
6.323819,-1812.5000,9341.3166,-11485.0601,12733.5729,0
6.323849,15060.5469,2905.0819,-10966.0367,11854.8509,0
6.323896,-11938.9648,5085.1880,2721.8395,5373.9668,0
6.323933,-2881.8359,8392.6910,11733.4823,6282.3706,0
6.323980,-11063.9648,-3124.8621,11784.3587,-10570.5944,0
6.324018,15133.7891,-5667.1275,-2740.7863,-9318.5356,0
6.324056,12182.6172,-4758.2548,-8736.8597,-5420.1351,0
6.324104,7104.4922,-8093.9676,-151.3062,-3130.2923,0
6.324132,-6811.0352,-10933.7462,-758.6004,-1597.4711,0
6.324187,-14896.9727,-5779.8394,3729.8116,6849.0103,0
6.324210,7687.5000,-3346.0079,6671.7777,-2057.8831,0
6.324270,3092.7734,-5246.8182,5861.2226,12153.6104,0
6.324286,-7180.1758,-5023.1652,1607.0307,11021.9251,0
6.324359,15044.9219,11283.8154,11199.6358,-2333.4879,0
6.324360,-13809.0820,11273.2986,11202.4071,-2370.5488,0
6.324440,1021.9727,14056.6197,12253.6443,2195.1246,0
6.324474,14814.9414,12358.6160,7146.3313,-8876.7440,0
6.324551,-9682.1289,-8243.2092,-10889.7664,12613.3225,0
6.324625,11689.4531,-12534.7900,-4123.4312,-1878.2018,0
6.324658,-10964.3555,-12419.4984,1929.0420,-12978.3890,0
6.324698,-306.1523,-10520.6742,1660.3230,1980.8169,0
6.324774,3318.8477,9374.1263,14169.1240,3674.1693,0
6.324777,-14954.5898,10187.2009,14228.6172,4457.9056,0
6.324858,-5213.3789,8600.2670,173.1499,-12104.8327,0
6.324861,-7432.1289,8677.9567,959.9782,-12026.8047,0
6.324935,-11245.1172,-5378.8246,14483.0033,-3518.0513,0
6.324944,-11058.1055,-8993.7541,14282.3236,-5779.0765,0
6.325012,891.1133,-9529.5758,-13785.5899,4550.6294,0
6.325017,9438.4766,-11017.2856,-12938.9114,4632.1132,0
6.325090,2938.9648,3341.9541,10766.3592,-3198.7744,0
6.325093,995.6055,4284.7018,10940.3067,-2637.1367,0
6.325166,6938.9648,13947.7095,13561.7217,1644.1137,0
6.325170,3016.6016,14281.0673,13123.2628,2115.0789,0
6.325239,11564.4531,-10449.6592,7363.4541,1642.1897,0
6.325263,-979.4922,-6747.6624,7162.8202,-9154.5699,0
6.325310,6312.9883,13387.5870,2241.5645,-7392.0456,0
6.325340,-6966.7969,9991.9733,1800.3620,12094.3797,0
6.325381,-13064.9414,7297.1108,333.2192,-10629.9124,0
6.325421,-8959.9609,8720.4961,-1547.8962,10311.6344,0
6.325454,-8439.4531,-3054.3938,3407.1341,-11374.8891,0
6.325501,-10872.0703,2455.7230,-2819.1923,-10647.9913,0
6.325526,3689.4531,6503.9982,-73.9890,915.9810,0
6.325578,11041.5039,-2549.3143,-13167.6917,4654.9933,0
6.325596,-436.0352,3682.6758,-13210.7705,4745.4565,0
6.325700,12985.3516,6410.5441,-4785.2124,10253.1073,0
6.325775,3009.2773,6101.7717,5700.9676,3059.5059,0
6.325865,956.5430,10726.8148,8758.6369,-616.5439,0
6.325941,-5043.9453,-7978.4642,12210.9943,3566.4371,0
6.326020,8963.3789,-2915.7335,4844.5263,-1143.8151,0
6.326126,-15031.2500,5920.4604,-12799.6905,-7153.2817,0
6.326203,-15033.6914,-523.6463,-8447.3567,-1624.0820,0
6.326279,-3089.8438,10494.3989,-8876.3298,-1694.2451,0
6.326355,-11053.7109,10607.1024,2022.4037,-6653.3753,0
6.326431,14979.9805,-8879.5234,-4342.5232,-8692.4118,0
6.326509,10991.2109,-2821.2931,-10422.2824,-6420.6919,0
6.326583,15022.4609,-1926.8681,3647.2586,6285.2826,0
6.326658,-4953.6133,-2953.1943,6178.4298,12289.3528,0
6.326732,1024.9023,-14.0848,-9788.8720,3925.7751,0
6.326812,-8952.1484,-11216.0436,-10456.5680,-5744.7374,0
6.326888,-6895.5078,-13470.2148,-5414.6477,-5742.5114,0
6.326963,-947.7539,561.0649,-10795.2692,-3183.7076,0
6.327048,-2929.1992,8546.6668,589.1283,-769.2244,0
6.327123,7083.4961,-9.7432,8712.7296,-7804.7799,0
6.327201,15086.4258,-12074.6714,-852.1090,684.9126,0
6.327278,2995.6055,-1438.4991,-8398.6828,5163.4936,0
6.327352,-995.1172,1556.8581,-10363.6723,3190.1222,0
6.327426,-10979.9805,3831.7483,-3278.8526,514.4757,0
6.327503,1026.3672,-2684.0324,-2788.8778,3208.5367,0
6.327576,-977.5391,-12680.6701,3660.3639,6190.7774,0
6.327650,6997.5586,-3114.3461,6535.7077,5147.8959,0
6.327725,13014.6484,-6650.4415,5709.3727,13209.5801,0
6.327802,3010.2539,-9069.8218,-7982.2322,2193.0565,0
6.327886,-6992.6758,-13662.4594,5488.7241,-11875.3644,0
6.327962,14927.7344,-12051.4168,8589.0486,-5935.9988,0
6.328038,-5020.0195,-511.1570,-3788.3069,-6894.9571,0
6.328117,-11025.3906,1478.1534,-2738.4244,-12694.2936,0
6.328192,13130.3711,9952.4541,-7646.8393,397.2299,0
6.328266,-2938.4766,-2120.4503,-7274.2663,-12017.6085,0
6.328381,-2941.8945,-2063.1982,4890.3356,-1424.1503,0
6.328457,7072.7539,431.3565,-551.2569,3279.9553,0
6.328531,-938.4766,-8051.6357,-973.3699,-834.1014,0
6.328604,13086.9141,8500.8366,11031.5225,-5883.1260,0
6.328680,11077.1484,5973.8354,6908.2233,7208.6983,0
6.328767,7091.3086,-10418.9768,-2984.9316,3629.3799,0
6.328851,1073.7305,-4193.0402,-997.8367,5568.8165,0
6.328924,15036.1328,-2461.9600,-6967.2275,5068.6220,0
6.328996,5024.9023,10569.8886,-4165.5119,877.8031,0
6.329073,-4960.9375,-4788.6435,94.0082,2158.2298,0
6.329145,1019.0430,5615.4504,-9971.5091,-4839.0128,0
6.329216,-6975.5859,570.2613,6031.2639,-4798.3242,0
6.329287,8947.7539,3070.2332,4148.3691,-1824.1354,0
6.329360,10957.5195,-2532.8309,-12019.2094,-4893.3673,0
6.329367,14721.6797,-3430.9518,-12388.3783,-5252.2448,0
6.329432,13018.0664,-10951.0379,-7410.7693,3258.3667,0
6.329503,-10963.8672,-9928.5358,14987.9681,12873.4993,0
6.333273,-10950.6836,10102.0910,5807.4451,-4333.2962,0
6.337180,-7230.4688,7531.6532,1297.3097,7543.6489,0
6.341086,12026.3672,-13659.9788,8328.2525,13373.1349,0
6.344992,7922.8516,11408.1059,-10080.2890,7633.9372,0
6.348898,6722.1680,9512.5279,-156.4135,3336.0590,0
6.352805,12612.3047,-13208.3978,9419.6912,7061.8942,0
6.356711,-15456.0547,4943.7756,-3040.1247,-7872.4195,0
6.360617,8683.5938,10651.8013,13074.9562,5614.9146,0
6.374342,12581.0547,-14414.1189,8757.8153,12809.2570,0
6.378248,4545.8984,12330.9225,-9284.0405,7805.9638,0
6.382154,6771.9727,6062.5190,4251.3994,9147.5235,0
6.386060,12291.9922,14816.6790,14897.5215,14552.4405,0
6.389967,8172.8516,-4170.2194,10622.1027,14072.8550,0
6.393873,8749.0234,5554.5797,-7532.2012,13519.7702,0
6.397779,12456.0547,13486.9395,-13619.9665,8276.4478,0
6.401685,11549.8047,6321.1976,-2853.8628,-5904.6259,0
6.405592,6829.1016,-5879.8027,13309.8328,-2183.7969,0
6.419364,13456.0547,13685.5979,-12495.5105,-10355.0316,0
6.423271,14802.2461,-6861.2024,-12013.6814,-152.2891,0
6.427177,-13106.4453,-14638.6621,-7928.3903,-11977.8722,0
6.431083,14112.7930,11235.2962,-9839.0892,-13783.1557,0
6.434989,4181.1523,-2540.2456,2585.2042,-3823.2864,0
6.438896,8860.8398,-3213.8715,9118.7003,7191.7192,0
6.442802,13808.1055,12221.9599,-13651.0911,-13112.5139,0
6.446708,6932.6172,-1272.9773,-13330.8227,-3639.3416,0
6.450614,8913.5742,-12265.4176,-8922.7543,8244.4747,0
6.479324,14456.5430,13700.5213,-13723.0055,-13313.3236,0
6.483231,9433.5938,669.4513,-15133.2146,-10101.3765,0
6.487137,-3019.0430,-8294.5002,-12668.1860,-11653.1465,0
6.491043,15698.7305,12845.7060,-11788.8049,-10821.1330,0
6.494949,-14068.3594,8820.4060,-5119.8504,-4956.2801,0
6.498856,-5040.0391,3379.1168,6153.0294,-9969.1491,0
6.502762,-15270.0195,13832.3037,-11062.5066,-6874.9671,0
6.506668,-1442.8711,-2874.0871,-9297.0901,-1063.1722,0
6.509376,15628.9062,12098.9535,7973.1564,-11105.5071,0
6.510574,8940.9180,14846.5988,10618.2875,-3122.7110,0
6.513282,1437.5000,11681.5902,-2190.6592,6636.7060,0
6.517189,13002.4414,12775.5289,-12623.6684,-625.0698,0
6.521095,-15785.1562,15314.5182,-11063.7673,-5914.9032,0
6.525001,1436.0352,-10291.7590,-2461.1532,10698.1739,0
6.528907,10979.9805,3274.1788,6871.1189,4681.1333,0
6.532814,-15988.2812,13918.4102,-9234.3990,-6252.7677,0
6.536720,7314.4531,12885.4141,1083.2448,7452.2350,0
6.540626,-10982.4219,12946.7946,3957.9405,1646.9879,0
6.568230,-15816.4062,15421.3442,-9284.1122,3423.5079,0
6.572136,2063.4766,-11476.2272,2501.7266,-11932.0669,0
6.576042,7033.2031,-7364.5474,-8902.2155,-14108.0067,0
6.579948,-15613.2812,13922.3765,-7811.1975,1429.2690,0
6.583855,6813.4766,-7594.6376,10903.7383,11848.6864,0
6.587761,10985.3516,9839.2544,12309.8676,6465.4101,0
6.591667,-15746.0938,14836.2948,8625.4363,-1298.0390,0
6.595573,10689.4531,-8663.0517,4941.0050,-9061.4881,0
6.599480,-2951.6602,2245.1776,1256.5737,-4060.3489,0
6.613398,-14917.9688,15008.0852,-10415.2229,353.9108,0
6.617304,-10057.1289,-5186.0406,4590.3576,-850.8798,0
6.621211,-14918.4570,-853.6459,13162.6107,-13267.2798,0
6.625117,-14542.9688,12732.0382,-11342.7683,9964.6323,0
6.629023,-12809.5703,-7114.3804,-1693.6016,5245.0084,0
6.632929,15069.3359,-7849.5337,11023.0120,2740.9378,0
6.636836,-14535.1562,-14382.2190,-13531.1297,277.3426,0
6.640742,-7432.1289,68.0628,-3544.2045,-2186.2526,0
6.644648,-12903.8086,-11789.7267,12554.8956,-4649.8478,0
6.660387,-14214.8438,-15805.4622,-14004.1174,1817.3173,0
6.664294,-5559.0820,2969.1777,-3474.2105,10491.5531,0
6.668200,13020.9961,-11424.5240,-2841.1091,-4476.7277,0
6.672106,-15347.6562,-15715.7523,-10292.2118,-5609.0171,0
6.676012,-15057.1289,-800.7937,-254.7607,-304.3567,0
6.679919,1099.1211,6465.4506,-2442.0666,-8054.0792,0
6.683825,-14214.8438,-13547.3540,-4856.9192,1799.8403,0
6.687731,-4304.6875,6751.3356,-3221.4295,14056.1143,0
6.691637,7146.9727,-42.9169,-9364.8651,10319.4251,0
6.704319,-14800.7812,-15113.8462,-9050.1563,-13123.0612,0
6.708225,11315.9180,3812.5592,6535.5527,-3331.8846,0
6.712131,-2922.3633,12340.5304,8381.9113,4409.1790,0
6.716038,-14722.6562,-12488.9448,-13821.0242,-10859.7250,0
6.719944,-9431.6406,12400.0938,-13165.8227,-5072.6907,0
6.723850,-4892.0898,2470.4023,-6595.1039,-10511.0808,0
6.727756,-13894.5312,-13310.1106,-11767.5051,-10625.3425,0
6.731663,-2933.1055,-13915.2793,-4859.8660,1869.5747,0
6.735569,15052.7344,-392.7867,9682.0491,10549.4918,0
6.749402,-15042.9688,-14046.0018,-6311.1203,-14273.3529,0
6.753308,-14935.5469,-14889.4925,8705.3584,-6995.0638,0
6.757214,-12946.7773,-2131.4760,2341.4439,-1858.3074,0
6.761121,-15496.0938,-13695.1842,-6936.4694,-8346.1589,0
6.765027,3689.9414,12306.3567,2083.1345,7919.0881,0
6.768933,-6988.2812,-5003.7189,-10861.7308,13997.5420,0
6.772839,15941.4062,-13679.4275,-5895.8050,12003.6981,0
6.776746,4190.4297,-7469.9536,10550.6664,7283.0319,0
6.780652,-8916.5039,11342.0907,11572.1725,10421.5456,0
6.794322,-14347.6562,-13708.5225,-3940.2277,-14424.6234,0
6.798228,-13312.9883,-1126.1450,12233.0925,-14627.6177,0
6.802134,12986.3281,-11752.9824,-1741.0245,-15309.3436,0
6.806040,-15574.2188,-13935.6828,-6504.7998,-9098.9229,0
6.809947,10688.9648,-863.2744,4807.0919,956.8552,0
6.813853,-10955.5664,-2606.7618,-7916.8171,-10877.3029,0
6.817759,-14675.7812,-13621.3208,-5528.8332,-13702.8416,0
6.821665,-3931.6406,-7402.6784,11297.3575,-7123.6548,0
6.825572,3092.2852,-8691.2451,2246.2741,-326.3251,0
6.839361,-14386.7188,-14195.4935,-8148.6542,-12889.0894,0
6.843267,-7431.6406,-9382.6776,1839.9609,-3321.4231,0
6.847173,13116.6992,1857.9172,-3441.1433,1582.4067,0
6.851080,-13362.7930,-12566.5583,-5462.3167,-4487.5812,0
6.854986,14570.8008,-3782.1304,11649.6672,14009.3638,0
6.858892,11126.4648,707.7438,3957.4495,5541.3104,0
6.862798,-13706.5430,-13180.8552,-9228.8778,-7120.7389,0
6.866705,3197.2656,-10439.5377,81.5175,8945.1710,0
6.870611,-802.7344,-3617.9002,4057.3387,12456.6821,0
6.884325,-13284.6680,-14163.6297,-9894.8164,-9672.5866,0
6.888231,318.8477,12665.9265,-4772.7688,-841.2293,0
6.892137,-4863.7695,9805.2426,-9445.4281,-3505.9662,0
6.896043,-13089.3555,-12227.4108,-6795.0261,-13782.2311,0
6.899950,9695.8008,-4652.0225,5364.2176,-15147.4347,0
6.903856,-8893.0664,-6521.5716,-8055.1404,-14521.9543,0
6.907762,-14832.0312,-13873.8692,-8358.3386,-8127.9773,0
6.911668,-7931.1523,-11897.1153,-51.2718,904.8739,0
6.915575,-4862.3047,-264.9147,-14569.3931,-5591.1158,0
6.929095,-13612.7930,-6530.7704,-9719.9511,-7277.7488,0
6.933002,319.8242,-8804.7845,-1852.0009,11106.2829,0
6.936908,13107.4219,-11078.7986,-12818.8676,6388.0662,0
6.940814,-14190.9180,-13352.8126,-12274.3321,-9918.0472,0
6.944720,196.2891,-13453.8726,-9775.7720,2999.4655,0
6.948627,1150.8789,-7769.1343,-11181.5475,-1006.5446,0
6.952533,-13925.2930,-8759.4925,-13197.5171,-9013.7806,0
6.956439,4947.2656,-15388.9365,-10504.5389,342.5764,0
6.960345,1149.4141,-1841.4291,6666.9977,-14734.6230,0
6.988525,-13331.5430,-13948.6483,-11783.2367,8678.0691,0
6.992431,12446.7773,-12965.9379,5532.5567,-1053.8479,0
6.996337,9129.8828,-11170.1537,12524.8493,-13182.8965,0
7.000244,-13675.2930,-14059.7117,-12659.7928,11604.3368,0
7.004150,8070.8008,-14669.8009,-763.2716,-2874.2920,0
7.008056,-4869.6289,-1197.3419,5265.4287,-4279.6225,0
7.011962,-13683.1055,-12185.6068,-11767.8866,-5684.9530,0
7.015869,8320.3125,-7710.0505,6367.4077,-7090.2835,0
7.019775,9127.4414,6797.1306,2652.3710,-8495.6140,0
7.034397,-13542.4805,-13719.5021,-10660.9179,-6806.6280,0
7.038303,1946.2891,-9708.8626,3411.8749,4151.4309,0
7.042209,1142.0898,1843.6612,7568.2289,-3781.6429,0
7.046116,-13761.2305,-12316.6273,-11128.8997,-6166.9753,0
7.050022,1067.8711,-3389.8414,-5802.3271,673.9863,0
7.053928,-6900.3906,11501.0990,-13328.8396,-13153.8361,0
7.057834,-13933.5938,-11824.5050,-12316.2649,-7016.7745,0
7.061741,-181.1523,-6030.2117,-3678.0668,5589.5250,0
7.065647,-4887.6953,-4914.1185,1780.5269,3324.3587,0
7.079316,-14042.9688,-14034.8294,-8038.4179,-7541.5222,0
7.083222,-2431.1523,-9611.1575,8063.3366,659.0304,0
7.087128,5094.2383,13038.7678,-3100.7711,-10432.1899,0
7.091035,-14449.2188,-12043.0405,10457.3463,-7177.2131,0
7.094941,-6433.1055,-9520.8812,-6767.4396,2881.1653,0
7.098847,-8924.3164,-8913.6975,-10582.5469,-7758.4573,0
7.102753,-14886.7188,-13880.8994,-10601.7847,-9551.6079,0
7.106660,14566.8945,-9387.9483,7165.1757,1287.2933,0
7.110566,-8897.4609,7575.5717,11102.3887,3433.5718,0
7.124318,-14605.4688,-14057.8652,-11333.7166,-10051.1450,0
7.128224,10564.4531,-14105.1623,4418.3710,-4584.5495,0
7.132131,-2946.7773,-11188.9358,6128.6489,-10422.6478,0
7.136037,-14691.4062,-14491.3347,-10193.3434,-8393.0782,0
7.139943,-12684.0820,-8507.0969,2331.2452,2925.0737,0
7.143849,7084.4727,11350.6828,-12085.8000,-2171.0869,0
7.147756,-14402.3438,-12038.3688,-9770.6263,-8237.3196,0
7.151662,-14185.0586,-10644.4413,2791.7164,-374.1632,0
7.155568,-2931.1523,-7200.4350,-14976.8494,-7435.1939,0
7.169340,-14386.7188,-14259.5489,-7917.3969,-4313.5116,0
7.173246,-8432.1289,-12605.2024,14873.5734,12695.1520,0
7.177152,11104.4922,-1900.5877,7950.1576,3152.8656,0
7.181058,-14355.4688,-13695.9940,-13658.5838,-13372.1703,0
7.184965,-3805.1758,-15043.0484,-7872.1325,-8402.0444,0
7.188871,-10887.2070,8843.8521,-4001.3581,-2137.0395,0
7.192777,-14207.0312,-12523.7740,-9959.4445,-13361.7409,0
7.196683,-4806.1523,-11257.0504,4800.4229,-10563.4219,0
7.200590,13111.3281,-7271.9474,9446.2003,-3742.7335,0
7.214338,-14097.6562,-14364.3194,-9372.7703,-13444.7469,0
7.218244,-7182.6172,-12159.4950,5053.0089,-8236.1545,0
7.222150,-6895.0195,-5535.3052,3470.7305,-971.9329,0
7.226057,-14730.4688,-13972.0746,-9041.1055,-6343.3064,0
7.229963,-14557.1289,13063.1145,4194.0351,9509.6488,0
7.233869,11079.1016,7821.4882,-2341.7686,4299.5679,0
7.237775,-14652.3438,-12873.0816,-11626.9534,-4675.2290,0
7.241682,-4930.6641,-9090.4979,-8442.0459,11023.8131,0
7.245588,1096.6797,-7045.7439,-10874.3831,5212.3834,0
7.260407,-14800.7812,-14780.8449,-10308.5665,-4897.9879,0
7.264313,-14056.6406,9785.6659,-1911.0172,8222.9416,0
7.268219,-4917.4805,-4842.9773,-2780.2648,-2762.0894,0
7.272125,-15378.9062,-14048.2528,-9448.3324,-9101.0609,0
7.276032,11566.8945,11138.3114,-4550.5649,6523.9151,0
7.279938,-6920.8984,2436.3675,-7220.3724,-1718.7128,0
7.283844,-14824.2188,-13219.8548,-10129.7594,-3806.5767,0
7.287750,-9433.1055,-8886.3683,-666.6264,-5960.2967,0
7.291657,-945.3125,107.3343,4619.7625,-13062.6678,0
7.304070,-15019.5312,-6270.0513,-12563.4189,-10977.7133,0
7.307977,-12557.1289,-8661.7736,-8866.7944,-1593.5221,0
7.311883,5093.2617,-11053.4958,7420.8813,-14687.6880,0
7.315789,-14816.4062,-13445.2181,-9084.2927,-11971.9368,0
7.319695,14317.3828,-11864.2968,10925.8931,-2649.5688,0
7.323602,7104.4922,-9896.5066,-2656.6140,-1780.6315,0
7.327508,-14722.6562,-12759.8413,-8640.1618,-11703.1258,0
7.331414,-14807.6172,-14446.7260,12388.1410,-4426.0721,0
7.335320,11075.1953,-11603.2772,855.6819,-14835.5444,0
7.363550,-14714.8438,-13381.8331,-11597.2872,-6008.0170,0
7.367456,-12309.5703,-8434.4260,11260.1316,8740.4308,0
7.371362,-14934.5703,7264.2823,-12854.5323,-13504.1211,0
7.375269,-14988.2812,-9208.0332,-11981.4759,2032.9077,0
7.379175,7063.9648,-15177.6100,6141.5630,3086.1524,0
7.383081,-4973.1445,3902.2971,5768.4809,816.7194,0
7.386987,-15503.9062,-9369.7914,-12476.2673,-1527.4609,0
7.390894,11189.4531,-8517.4293,5064.8193,-3871.6413,0
7.394800,-2976.5625,5675.7781,-12894.4382,-6215.8216,0
7.410111,-15746.0938,-14296.9033,-9324.6444,-9596.2747,0
7.414017,6563.9648,-10883.5925,1377.3377,1071.3005,0
7.417923,-974.6094,6187.8599,-2138.4154,-2973.3610,0
7.421829,-15675.7812,-13341.9072,-14737.3434,-10961.9857,0
7.425736,562.9883,-12061.4608,-8022.7609,-2325.1489,0
7.429642,-8967.7734,-9058.9451,-5383.3584,-4842.5236,0
7.433548,-15488.2812,-14534.8162,-11205.8817,-7811.2204,0
7.437454,4562.0117,-9827.1732,-1923.2663,-4753.4654,0
7.441361,-13010.7422,554.9046,4358.8970,-9159.5518,0
7.484341,15737.7930,-14359.0256,-14222.4989,-14773.2416,0
7.488247,-5687.5000,-8645.0266,-7097.7808,-6352.3927,0
7.492153,-8974.6094,2085.8179,6785.6118,6936.2673,0
7.496059,-15613.2812,-12792.1477,-14660.8506,-14278.7831,0
7.499327,-15699.2188,-14963.5963,-8349.3152,-4779.4637,0
7.499966,5437.9883,-12533.3373,-3692.0720,-5446.0690,0
7.503233,7814.4531,-11593.5516,9208.7036,9051.3109,0
7.503872,13003.9062,-192.2367,4480.8101,6182.1235,0
7.507139,-6970.2148,-4903.8656,-14917.1503,-14364.6078,0
7.507778,-15738.2812,-10454.6654,-14855.5478,-14300.3917,0
7.511045,-15128.9062,-14278.3034,-13631.6126,-1381.9058,0
7.511684,9314.9414,-9845.3067,-12547.2166,-433.3909,0
7.514952,15439.4531,-872.7539,-1830.7454,11081.4657,0
7.515591,-12961.4258,-3458.3845,926.7353,8203.1618,0
7.518858,9032.7148,-10517.1680,4957.2411,-5179.9416,0
7.522764,-15253.9062,-14376.7336,-7890.7121,-10719.8647,0
7.526670,13441.4062,-11130.3593,13757.3772,2097.0725,0
7.530577,5048.3398,9267.1967,7475.0678,10604.4189,0
7.544345,-15628.9062,-14050.1399,-14884.1225,-12733.4308,0
7.548252,7939.9414,-11153.3159,-12295.3280,-3674.4024,0
7.552158,15041.0156,1849.0758,-7334.6160,665.5713,0
7.556064,-15316.4062,-12977.2180,-13628.5933,-10206.0331,0
7.559970,14940.4297,-3848.7572,-6359.7824,1047.2944,0
7.563877,13015.6250,-10208.5025,77.5764,-919.7421,0
7.567783,-15675.7812,-14378.6441,-7933.7990,-13595.4352,0
7.571689,8313.9648,-6711.8701,11934.1152,-8948.1516,0
7.575595,-966.7969,5927.7804,1781.6004,-5749.2990,0
7.589368,-15574.2188,-14111.0046,-14359.6958,-13334.4497,0
7.593274,8939.9414,-10203.6502,-9877.0052,-10396.6804,0
7.597181,-947.2656,-8980.4613,-5681.8501,-11924.9484,0
7.601087,-15207.0312,-13842.6731,-14093.1804,-13203.5158,0
7.604993,7938.9648,-11066.9423,-12933.7321,-3473.7942,0
7.608899,9044.9219,-1925.8384,-13345.3470,4784.1000,0
7.612806,-14847.6562,-12999.8674,-14307.6211,-12168.9696,0
7.616712,15689.9414,-7364.3489,-9310.6496,-5371.1186,0
7.620618,-12958.9844,-8685.8840,1777.3650,-2135.1643,0
7.634354,-15410.1562,-14848.7578,-14172.2455,-13062.3064,0
7.638260,12190.9180,-14273.8283,-6688.6266,-8586.4238,0
7.642166,-8938.9648,3011.1581,43.5388,-9403.8669,0
7.646072,-15152.3438,-12656.4311,-8412.5670,-14527.1487,0
7.649979,7062.9883,-14582.9172,12806.7714,-7453.1528,0
7.653885,7003.4180,-595.7251,7623.8609,-233.3709,0
7.657791,-15652.3438,-12814.0722,-13880.0317,-11695.6289,0
7.661697,13690.9180,-3727.2787,-11246.9130,-2517.8802,0
7.665604,-2969.7266,-6464.8396,-13143.0061,1378.3757,0
7.679222,-15628.9062,-11095.1561,-9982.2418,-14720.7984,0
7.683128,6438.9648,-12321.7998,5540.0594,-8699.7364,0
7.687034,-916.0156,-13548.4435,-13441.7212,-115.3493,0
7.690940,-14691.4062,-14775.0872,-10297.5781,-14544.2912,0
7.694847,6688.4766,-14806.5752,3472.0798,-10881.9321,0
7.698753,1031.7383,-14538.1330,-13444.7581,-3029.5843,0
7.702659,-15058.5938,-14745.7541,-15255.5511,-12659.4582,0
7.706565,7812.9883,-14749.5852,-11057.4878,-4878.7321,0
7.710472,-2968.2617,-7106.9919,4457.6800,3533.4925,0
7.738368,-15285.1562,-14412.7779,-14670.9914,-11664.6505,0
7.742274,-15185.0586,-7398.1292,-10242.6792,14209.7756,0
7.746181,-4964.8438,-6726.2317,-5768.7919,-13396.4526,0
7.750087,-15371.0938,-13397.6998,-13738.1214,-8265.5892,0
7.753993,10689.9414,-11037.1532,5908.0216,6562.7385,0
7.757899,-961.4258,-5885.9300,-11225.7413,4193.6564,0
7.761806,-15035.1562,-12748.7712,-14467.0440,1230.9595,0
7.765712,14187.9883,-11690.1006,-10781.3220,-1731.7374,0
7.769618,6998.0469,470.5413,8496.6969,-4694.4342,0
7.784323,-15769.5312,-14477.3639,-8927.7672,-13425.1841,0
7.788229,8065.4297,11882.0973,10683.0456,-3396.0594,0
7.792135,-14956.0547,4354.5225,261.4371,2699.5359,0
7.796042,-15425.7812,-12870.8273,-8083.0002,-13266.5308,0
7.799948,9439.4531,-12903.7752,8773.3791,-6099.8870,0
7.803854,11047.8516,1396.3526,-10474.1158,-2742.1621,0
7.807760,-15207.0312,-13110.4300,-8743.3578,-12630.4882,0
7.811667,13190.9180,-13153.6846,8205.5973,-4577.8370,0
7.815573,9055.1758,1391.8989,-5648.1008,1468.5616,0
7.829334,-15183.5938,-14341.6702,-10166.2911,-13420.3311,0
7.833240,9814.4531,13136.5865,3883.4222,-8427.7776,0
7.837147,-10960.9375,9625.1895,-13481.0776,-6523.9669,0
7.841053,-15261.7188,-12820.1776,-9305.4346,-10978.7552,0
7.844959,14814.4531,-10571.9176,9086.1036,-690.0071,0
7.848865,-6974.6094,-10857.1880,-5686.3292,-1138.8339,0
7.852772,-15582.0312,-14518.1474,-10589.9441,-13436.3081,0
7.856678,5687.9883,-13553.0887,7728.2351,-3717.8655,0
7.860584,11005.8594,-3829.5408,9370.7207,8769.0458,0
7.874353,-15792.9688,-14572.2268,-8472.4664,-12267.0668,0
7.878259,4813.4766,-13463.9243,7573.6727,-9897.3034,0
7.882166,-961.9141,5086.0408,-8997.2781,-14725.0378,0
7.886072,-15660.1562,-12641.1698,-9157.3117,-13713.9701,0
7.889978,1063.4766,12825.7707,3258.1094,-5213.2068,0
7.893884,-2945.3125,-8303.7104,-13510.5688,1388.8595,0
7.897791,-15379.3945,-14399.9901,-10855.1977,-14261.3959,0
7.901697,-687.5000,10457.3350,-1122.8672,-11196.0385,0
7.905603,-4967.2852,-3159.4833,-11313.5507,-5820.1584,0
7.919318,-15441.4062,-14710.8545,-8918.2735,-13582.7424,0
7.923224,6063.9648,12215.4872,10754.4788,-3705.1917,0
7.927130,9025.3906,2520.7138,1595.5655,4526.7036,0
7.931036,-15363.2812,-13073.1593,-8979.1657,-13467.2929,0
7.934943,10188.9648,-12214.8418,8542.5110,-8990.5659,0
7.938849,13034.6680,-12826.9383,-4486.8153,-7832.8164,0
7.942755,-15285.1562,-14665.4289,-9490.7199,-12397.2843,0
7.946661,10063.9648,-15151.2731,6054.2260,-8243.0280,0
7.950568,7004.8828,-9592.1308,-5745.0085,-9463.6934,0
7.964382,-15871.0938,-15092.6129,-8516.1563,-11779.9157,0
7.968288,7812.9883,-11562.2655,5876.0358,-4677.7997,0
7.972195,-15025.3906,4490.3141,-13776.4717,-6880.7513,0
7.976101,15707.0312,-11822.0349,-9757.5095,-12603.4832,0
7.980007,1187.5000,-13544.9559,4276.7348,-8588.1231,0
7.983913,-14987.7930,5881.6588,-9150.7343,-10727.1598,0
7.987820,-15730.4688,-11339.7386,-11284.1804,-13165.9517,0
7.991726,1812.9883,9633.3897,-347.6373,-8826.1828,0
7.995632,-6983.8867,-9138.2854,-3896.7433,-5813.6575,0
8.009363,-15933.5938,-15159.9533,-10592.3445,-13491.3683,0
8.013269,2438.4766,10823.9227,1818.8861,-4851.6003,0
8.017175,1043.9453,14905.2020,-12063.9531,1846.3031,0
8.021082,-15089.8438,-12326.7788,-10497.2368,-13828.7073,0
8.024988,7688.4766,-12862.2119,860.0992,-3966.4384,0
8.028894,15031.2500,10908.0962,-15173.6396,5808.3897,0
8.032800,-15738.2812,-12623.0335,-9597.5639,-14244.7742,0
8.036707,6690.4297,-12872.1396,5622.6052,-4044.6053,0
8.040613,-8972.6562,-5590.4942,-9454.9130,12462.9011,0
8.055865,-15652.3438,-10685.1486,-2689.8753,-13952.0499,0
8.059771,4937.5000,-12187.1553,-1898.6782,-6160.2348,0
8.063677,2992.1875,-13689.1620,6935.7662,-11271.3822,0
8.067583,-15917.9688,-15191.1687,9902.1726,-11610.9185,0
8.071490,8813.9648,-15774.1019,11438.4942,6014.9511,0
8.075396,-995.1172,-11286.3390,-3567.2249,-6464.1888,0
8.079302,-15878.9062,-14919.0163,-1281.3174,-10061.2157,0
8.083208,9814.9414,-14486.0142,11071.5165,-3048.4151,0
8.087115,5010.7422,-13048.9134,10612.6213,-3753.9158,0
8.113493,15925.7812,-15053.6682,-14640.9167,-15681.0327,0
8.117399,937.9883,6718.0588,474.3376,838.9229,0
8.121305,-14996.0938,-9058.0153,6944.6435,-14494.4950,0
8.125212,15925.2930,-14694.1230,-14226.0442,12217.0770,0
8.129118,-2562.9883,9130.4047,2816.0654,-10935.9847,0
8.133024,-8974.6094,6477.3378,8775.9471,-11458.7511,0
8.136930,-15863.7695,-11792.4131,-14196.0581,-11981.5175,0
8.140837,-1687.0117,9859.9171,1626.7773,-12504.2839,0
8.144743,-8987.3047,-5097.6360,4583.8102,-13027.0503,0
8.161315,15933.1055,-14953.9886,-4959.0664,-14875.2917,0
8.165221,-1437.0117,12678.7542,146.1189,-9374.5239,0
8.169128,15000.4883,5936.8107,-11155.9578,-10482.0516,0
8.173034,15769.5312,-13477.9814,-3063.2810,-13243.8161,0
8.176940,2187.9883,-14390.1676,8932.3913,787.8092,0
8.180846,8984.8633,-14906.6388,-3828.2723,-3139.5139,0
8.184753,-15878.9062,-14978.9856,-3921.1237,-13947.7583,0
8.188659,4812.0117,10287.7007,5083.2114,1217.7112,0
8.192565,2992.6758,13014.4764,-1424.0770,8304.6538,0
8.218089,15987.7930,-14701.3068,-1118.0452,8248.4759,0
8.221995,-437.0117,12820.1574,10790.7667,-4154.5983,0
8.225901,-6994.6289,13138.6071,-9242.8261,-13858.4124,0
8.229807,-15926.2695,-13528.8877,1214.6939,-13024.2182,0
8.233714,-312.9883,11275.9409,8357.0379,-4359.6376,0
8.237620,-986.8164,9303.4493,3594.9462,-6017.6680,0
8.241526,-15816.4062,-13626.3555,-3386.1567,-9611.3578,0
8.245432,7565.4297,13394.4215,-10367.2596,-13205.0476,0
8.249339,7024.9023,-7416.5757,-11011.4763,-7319.2299,0
8.249409,15589.3555,-7855.2275,-10575.4552,-6835.7223,0
8.253315,-2561.5234,11172.2174,4386.1626,7761.7788,0
8.257222,-4970.2148,-1781.8203,-10515.3313,-4247.0712,0
8.261128,-15668.4570,-14110.0087,-13558.6318,-7012.2636,0
8.265034,-1063.4766,7474.3048,-6820.6655,7148.1361,0
8.268940,-8998.0469,3482.5936,-13625.3573,-3102.6281,0
8.272847,-15917.9688,-13961.6968,-11414.5701,-6881.3580,0
8.276753,1812.9883,8848.0731,2155.4293,6094.6339,0
8.280659,15015.1367,12888.2018,-5667.2676,-4114.4840,0
8.294502,-15566.4062,-14915.8618,-10704.3754,-4672.6228,0
8.298408,5689.9414,9767.5581,1013.9099,12735.5925,0
8.302314,-945.3125,-13297.6925,-5254.9057,1330.4936,0
8.306221,-15769.5312,-15344.3696,-9937.6734,-6559.2430,0
8.310127,6064.4531,12699.3066,71.2336,4752.6659,0
8.314033,15023.9258,-13111.2250,-12314.8486,-7511.2872,0
8.317939,-15433.5938,-15059.2230,-9482.0306,-7074.3937,0
8.321846,11314.9414,12014.5937,4827.7049,2176.9746,0
8.325752,15033.2031,3708.0406,1494.3656,-7850.8023,0
8.339388,-15410.1562,-14655.0521,-9016.8831,-15305.3407,0
8.343294,-15557.6172,-13143.3200,7252.6861,-8735.4665,0
8.347200,7057.1289,-9336.8938,-4627.2640,-1215.3134,0
8.351106,-15316.4062,-14734.6577,-10169.0617,-7764.8108,0
8.355013,6437.9883,7427.9124,4443.4976,5693.8735,0
8.358919,-969.7266,-8996.8910,-1756.9652,-5380.6292,0
8.362825,-15300.7812,-15116.0903,-10389.7717,-5581.2268,0
8.366731,14440.9180,7296.5283,-141.7642,10621.4490,0
8.370638,-2931.6406,10939.0232,-14983.8404,-2190.9904,0
8.384336,-14847.6562,-13970.8085,-8523.4619,-5335.1390,0
8.388243,-15434.0820,-15033.3915,8635.9883,10836.2515,0
8.392149,13041.9922,-891.9801,-9068.9235,-4294.9847,0
8.396055,-15535.1562,-13796.7322,-12047.0761,-9022.6589,0
8.399961,4938.4766,3340.1964,-460.5069,2505.0827,0
8.403868,11037.5977,-10692.5689,-5864.7490,-6795.3163,0
8.407774,-15261.7188,-14620.8362,-10428.5143,-7108.9892,0
8.411680,8688.9648,8628.9377,1486.3976,9480.6910,0
8.415586,-2962.4023,-8233.7773,-11260.0597,6877.5191,0
8.443142,-15402.3438,-15168.5064,1902.5520,-14595.2442,0
8.447048,8939.9414,7175.5218,13277.3414,3932.3824,0
8.450954,-6968.7500,3404.6312,-6955.2917,-9961.2356,0
8.454861,-15542.9688,-14247.4454,-1417.6851,1713.8159,0
8.458767,12814.9414,12898.4168,-8283.9014,-5609.1943,0
8.462673,1037.5977,-13072.9277,-13220.5632,-10424.9682,0
8.466579,-15503.9062,-15110.9102,-13567.5696,-12292.9126,0
8.470486,1062.9883,5890.8470,-13914.5760,-14160.8570,0
8.474392,-12973.1445,-2309.6528,-14261.5824,-4816.9659,0
8.488386,-15378.9062,-14709.7747,-13886.2659,13820.4379,0
8.492292,9314.4531,3311.0139,6312.2615,9348.5457,0
8.496199,15037.1094,7091.0280,-7593.5110,-13625.8763,0
8.500105,-15488.2812,-11184.6638,-13514.4937,12542.9083,0
8.504011,10188.9648,-15376.7133,12126.0610,-2109.8727,0
8.507917,3030.2734,6359.3390,-7574.5856,-4506.7915,0
8.511824,-15191.4062,-10488.6488,-13767.0554,-6163.5201,0
8.515730,6813.9648,4371.1410,6405.8841,-7820.2486,0
8.519636,-14950.1953,-921.1550,-9115.9486,-9476.9771,0
8.534363,-15433.5938,-15026.2539,-11951.7385,-7566.5291,0
8.538270,3062.5000,6155.4162,-1290.7769,6117.3700,0
8.542176,11018.0664,183.5747,-7561.6791,-5331.2862,0
8.546082,-15402.3438,-13320.5586,-9382.0113,-6580.1386,0
8.549988,4562.9883,8537.4238,9088.7204,9257.8585,0
8.553895,-981.9336,11109.1916,4291.9541,-2711.5059,0
8.557801,15901.8555,-12723.8176,-11836.0281,-7772.3550,0
8.561707,-312.5000,4230.0434,2172.4339,6024.5920,0
8.565613,-994.6289,-1843.6351,5394.0891,-2197.9547,0
8.579361,-15488.2812,-14974.3407,-9329.8690,-15149.7450,0
8.583267,8812.5000,11166.6115,8392.5616,-13134.9306,0
8.587174,-5001.9531,2014.1380,-4492.0864,-9383.6453,0
8.591080,-15949.2188,-14078.5590,-10743.5826,-8395.3167,0
8.594986,62.0117,9544.4818,2390.2849,4420.2268,0
8.598892,-14999.0234,-12853.5831,-9072.3862,-10725.9612,0
8.602799,-15480.4688,-15360.5590,-9561.5748,-14306.8716,0
8.606705,15063.9648,10464.0009,4303.1570,-9489.5881,0
8.610611,15017.0898,-7244.4018,-15039.9209,-3948.4972,0
8.624336,-15417.9688,-14926.9590,-11970.9202,-6606.6554,0
8.628242,8062.5000,8375.7227,-1346.5741,8498.6936,0
8.632148,-10992.6758,11048.2429,-7439.4372,-4116.0567,0
8.636055,-15566.8945,-12376.5355,-10025.8531,-8712.7759,0
8.639961,-1938.4766,6024.7963,7745.9152,1613.3987,0
8.643867,9001.9531,1789.6992,6060.5513,-9648.2074,0
8.647773,-15980.4688,-13854.4335,-10379.0844,-6633.8529,0
8.651680,4688.4766,10124.9999,8513.2398,11449.1502,0
8.655586,-15003.4180,-10289.5346,12912.7366,6818.8799,0
8.669366,-15965.3320,-15228.6804,-10448.3644,-7233.8125,0
8.673272,-1064.4531,7850.3559,5721.1154,5717.6723,0
8.677178,-15011.2305,-2043.2666,1418.0133,-7082.0422,0
8.681084,15761.2305,-14509.5448,-10383.5943,-9909.9621,0
8.684991,-6188.4766,4946.2083,7095.2219,824.0978,0
8.688897,13001.9531,1447.4812,4485.8586,-5662.4100,0
8.692803,15862.7930,-14127.1510,-9076.6708,-6881.1371,0
8.696709,-560.5469,8313.1557,11942.6237,5494.4909,0
8.700616,-8997.5586,9134.2666,15072.2130,-5942.7444,0
8.714338,15597.1680,-14888.2696,11481.8183,-8542.4938,0
8.718244,-6063.9648,6121.0417,-3428.9354,-567.5359,0
8.722150,-3006.8359,10790.2118,-9135.5533,-15246.7879,0
8.726057,15847.6562,-13207.3526,-9466.5967,-6921.2050,0
8.729963,3938.4766,6346.4807,9816.3328,12129.4495,0
8.733869,9013.6719,-11097.4319,91.6507,3873.9146,0
8.737775,-15582.0312,-15203.9128,-10224.5728,-8341.4078,0
8.741682,5688.4766,9209.0235,5238.8247,7842.5007,0
8.745588,7043.9453,11094.8332,-1911.2737,8733.0889,0
8.761634,-15347.6562,-14682.1293,-5847.0681,-1138.1150,0
8.765540,1313.9648,4733.4415,-3772.9960,3487.8730,0
8.769446,-958.0078,-3628.5183,4594.8906,-9982.1170,0
8.773352,-15535.1562,-14396.7591,6512.3369,5759.4025,0
8.777259,8312.9883,7163.6140,-7713.4928,-3846.3363,0
8.781165,-991.6992,-3363.2947,-14419.9572,-13999.3540,0
8.785071,-15824.2188,-14484.4493,-2405.4316,7088.2210,0
8.788977,5938.4766,8490.9823,4515.3247,-3323.9618,0
8.792884,9019.0430,12853.1743,-1789.0870,-11897.1282,0
8.804086,-15480.4688,659.8381,-11602.9897,-7670.2754,0
8.807992,9189.9414,-3822.3614,5849.7943,7191.4664,0
8.811898,1047.8516,-8304.5608,-3577.0314,-13472.1417,0
8.815805,-15050.7812,-12786.7603,-12938.3055,-8241.3536,0
8.819711,5187.5000,-2972.4461,-1997.1076,7024.6716,0
8.823617,-14993.6523,13400.6447,-6268.4821,-7619.5388,0
8.827523,-15746.0938,1369.7978,14375.5702,-14995.4607,0
8.831430,9687.9883,-5561.4696,5243.5713,-12323.8648,0
8.835336,-5017.0898,6700.2377,-4489.4656,-7588.4064,0
8.863541,15675.2930,-14711.4633,15196.9144,-15391.8816,0
8.867447,-2062.9883,5144.3494,1179.9263,-437.6416,0
8.871353,14994.6289,-11759.0725,178.9209,-13522.5725,0
8.875260,-15761.7188,-15261.8118,-14755.0511,10175.6984,0
8.879166,3562.5000,5075.6822,948.3059,-10615.5363,0
8.883072,11018.5547,-1411.3795,-13091.1677,-13226.0668,0
8.886978,-15902.8320,-13615.4745,-14731.3326,-13534.8867,0
8.890885,-2812.9883,1839.6815,299.7551,-13843.7066,0
8.894791,-10998.0469,13592.6768,-7123.5730,-14152.5265,0
8.909352,15808.1055,-14600.9311,-12920.9580,-7614.9137,0
8.913259,-3436.5234,3244.3888,-2938.1762,5401.0972,0
8.917165,1023.4375,5111.3396,-4619.8050,-10655.9210,0
8.921071,-15605.4688,-12952.7893,-10574.1904,-14790.1113,0
8.924977,6687.9883,9689.4849,4837.4732,-14010.9353,0
8.928884,-6982.9102,9475.9570,-3063.6244,-13538.0255,0
8.932790,-15402.3438,-12583.4380,-10097.3159,-14488.4428,0
8.936696,11688.9648,7354.1056,3052.4960,-10330.1673,0
8.940602,11012.2070,10933.9332,-9134.0434,-3977.5296,0
8.954377,-15777.3438,-15085.5746,12107.3812,-5491.6087,0
8.958283,7690.4297,2781.9638,3196.8638,6125.7952,0
8.962189,15030.2734,-2354.5700,2627.9661,-13584.5835,0
8.966095,-15785.1562,-14479.7433,-10135.2958,-15070.3675,0
8.970002,4063.9648,6584.8769,1772.8674,-11962.8123,0
8.973908,-12968.2617,5329.0308,-12197.0184,-8132.3979,0
8.977814,-15269.5312,-13656.7125,-9942.8945,-14402.6952,0
8.981720,10062.9883,7401.7981,7798.6876,-9409.4008,0
8.985627,9014.6484,7224.3311,9052.2857,-2211.5881,0
8.999346,-15503.9062,-14947.8468,-11942.6956,-13164.8786,0
9.003252,7438.9648,4904.7036,1243.7578,-10349.4836,0
9.007159,5036.1328,12498.2911,-2877.0868,-12315.3503,0
9.011065,-15332.0312,-13054.8501,-10588.1118,-13868.4063,0
9.014971,-14308.1055,9134.3495,9086.3544,-4609.4454,0
9.018877,13053.7109,7394.6561,7985.9545,1280.2205,0
9.022784,-15207.0312,-13548.1012,-9556.1550,-13616.2759,0
9.026690,12814.9414,11536.7117,11768.3143,-4707.5347,0
9.030596,11027.8320,-12495.2945,15024.3873,6771.3002,0
9.044419,-15769.5312,-15682.3043,12627.5168,-5350.9827,0
9.048325,5063.9648,5168.8140,-549.6867,6472.7000,0
9.052231,-8958.9844,7036.7007,-13690.7628,-9685.8688,0
9.056137,-15191.4062,-13526.7859,-10276.4944,-14768.4416,0
9.060044,11314.4531,6224.6074,3622.7924,-11922.6059,0
9.063950,-4955.5664,-7539.5386,-3317.4079,-9529.9100,0
9.067856,-14839.8438,-14701.8231,-8103.2401,-13309.8605,0
9.071762,14938.4766,9791.6782,4798.7348,-11794.6413,0
9.075669,11017.5781,12945.7758,-15051.3275,-13137.3155,0
9.089335,-15417.9688,-14497.1864,-10963.6384,-15061.2223,0
9.093241,7438.4766,9890.2093,559.7846,-10006.8018,0
9.097148,-12963.3789,12973.4538,-12068.2805,-4049.2072,0
9.101054,-15035.1562,-12633.6399,-11724.5098,-13546.4834,0
9.104960,12188.9648,9898.0220,3925.2451,-8070.6823,0
9.108866,-4979.0039,11130.8805,7628.0363,-5612.6750,0
9.112773,-15777.3438,-13310.3206,-10538.0552,-5543.7284,0
9.116679,6689.4531,3922.4061,6483.2865,5183.6198,0
9.120585,-4972.1680,-9485.0929,5498.6734,-13147.0582,0
9.134369,-15105.4688,-15150.3502,-9723.6639,-14521.4130,0
9.138276,-15186.5234,8023.6351,3251.4057,-11379.0452,0
9.142182,15018.5547,-7344.0607,-10669.9661,-9571.1246,0
9.146088,-15199.2188,-14862.5684,-9919.3444,-13063.2707,0
9.149994,14814.9414,8125.5976,4932.7484,-7948.5420,0
9.153901,11041.5039,14629.0137,-6156.9989,-8264.6513,0
9.157807,-15230.4688,-12662.7905,-10045.6140,-15223.3465,0
9.161713,13439.9414,12715.6755,8450.7774,-11469.4104,0
9.165619,-6962.4023,-1397.3500,10992.1953,-4043.7538,0
9.179064,-15441.4062,-8990.9797,-11953.3412,-14020.8880,0
9.182970,10441.4062,-10790.1899,4765.2208,-10148.4133,0
9.186876,9046.8750,-12589.4000,-13364.7880,-8695.5815,0
9.190782,-15605.4688,-14388.6101,-12705.8841,-8912.7417,0
9.194689,1312.0117,-3137.2261,3472.9564,11454.1688,0
9.198595,13005.8594,7659.4094,8418.3663,2163.6597,0
9.202501,-15863.2812,-4769.4870,14174.0710,-9266.5070,0
9.206407,4688.9648,-4022.8332,3379.4191,10865.6348,0
9.210314,9029.2969,2896.9768,-3528.1477,5664.8771,0
9.238012,-15472.6562,-14574.1806,454.8015,4706.6896,0
9.241919,8064.9414,6266.5112,-3446.7676,-8681.6287,0
9.245825,-10962.4023,12646.2431,-13203.6547,-14726.0292,0
9.249731,-15777.3438,-12687.5379,2361.1139,8700.9920,0
9.253637,2562.9883,8097.0458,1629.9978,-4503.6085,0
9.257544,1019.0430,7338.7037,-2412.9566,-9603.4820,0
9.261450,-15582.0312,-13239.1795,-4376.1927,-10429.2998,0
9.265356,5813.4766,9349.5406,-6339.4288,-11255.1175,0
9.269262,13019.5312,-12634.7953,-8302.6649,-12080.9352,0
9.285524,-15636.7188,-15278.4347,-2128.5982,3952.8372,0
9.289430,7938.9648,5507.3939,11771.3073,2362.0742,0
9.293337,15015.6250,-11216.6470,-1778.4862,-11425.8411,0
9.297243,-15902.8320,-14993.7138,-5861.0789,-470.7594,0
9.301149,-1062.0117,4487.5223,9398.7948,4877.7591,0
9.305055,4995.6055,-11334.9540,15423.4011,-8770.7094,0
9.308962,15886.7188,-15553.4196,8539.2829,402.3375,0
9.312868,3063.9648,2260.7801,-6896.0971,415.4147,0
9.316774,-8967.7734,-11543.2054,-15119.8808,-6830.8114,0
9.329337,-15753.9062,-15334.5061,-12196.5483,-8663.3963,0
9.333244,3688.4766,8013.5931,-2379.2885,10601.6434,0
9.337150,-6968.7500,-3181.3597,-11986.2583,4064.3797,0
9.341056,-15542.9688,-14262.0300,-10994.6603,-9898.9867,0
9.344962,1437.5000,453.9613,2150.4428,5673.0515,0
9.348869,1014.6484,-605.2781,-5968.5493,1046.0622,0
9.352775,-15800.7812,-13995.9409,-12134.0434,-9193.0616,0
9.356681,4689.4531,4989.9300,3426.8730,10188.0825,0
9.360587,-2967.2852,5313.8391,13202.6138,12739.7554,0
9.374476,-15761.7188,-15245.8434,10920.5487,-7499.6653,0
9.378382,2312.5000,3112.8567,-2912.8749,2830.4082,0
9.382288,8996.0938,-4297.5158,-4753.7644,-12459.8771,0
9.386195,15933.1055,-14974.2900,-10854.1183,-9737.9276,0
9.390101,-4563.9648,437.0363,3141.3668,2876.2147,0
9.394007,6983.3984,10334.5135,-1843.6324,-3003.7299,0
9.397913,15823.7305,-13777.4241,-11859.0430,-8690.0723,0
9.401820,-2062.9883,3111.1762,-121.1178,1515.2856,0
9.405726,-6998.0469,10561.1568,-2099.0773,-9524.1215,0
9.419362,-15824.2188,-14797.6969,-12198.1960,-7388.0775,0
9.423269,2811.5234,5839.7331,-279.3551,13014.9142,0
9.427175,8983.3984,7068.1486,-8860.0310,2634.2473,0
9.431081,-15972.6562,-13866.3208,-10731.8907,-7125.9864,0
9.434987,1686.0352,5126.3648,2498.4686,13845.2054,0
9.438894,-11030.7617,-9562.0553,-8372.6487,2650.5564,0
9.442800,15628.4180,-15401.8811,11275.0192,-8607.2131,0
9.446706,-6689.9414,-285.9416,-5152.7136,10138.8875,0
9.450612,-9016.1133,12061.3442,-3737.3861,9072.7449,0
9.464377,15886.2305,-15007.2629,12213.6732,-8382.5553,0
9.468283,-4187.9883,87.7991,202.5107,6797.2167,0
9.472190,13012.6953,-4354.4863,-4428.4123,-2163.4259,0
9.476096,-15816.8945,-14629.6987,-12678.3062,-7350.0475,0
9.480002,-938.4766,-2510.7504,-2105.1889,7952.9190,0
9.483908,5006.8359,13536.1365,-2984.3305,-4919.3865,0
9.487815,-15676.2695,-12596.7694,-12373.6567,-6477.7402,0
9.491721,-562.5000,3413.9144,1880.3920,12440.0886,0
9.495627,7009.2773,-7676.6691,11344.1486,7068.1409,0
9.509394,-15839.8438,-15598.6961,12862.7533,-14670.3150,0
9.513300,4938.9648,3721.5967,4027.5821,-14241.7899,0
9.517207,-14967.7734,-9356.0887,-248.7581,-14839.5941,0
9.521113,-15519.5312,-15115.4739,-11266.7626,-15018.4129,0
9.525019,5063.4766,3292.8332,3640.0467,-8680.1867,0
9.528925,5020.5078,-9396.4722,2740.8067,148.5993,0
9.532832,-15535.1562,-15291.0228,-9747.0980,-15314.1157,0
9.536738,8188.9648,5079.8157,1835.5340,-12420.4892,0
9.540644,-8965.3320,-9223.1414,-15027.0895,-5840.6910,0
9.555827,-15550.7812,-13568.3832,-5025.4878,1165.6434,0
9.559733,3314.9414,-14247.0885,3844.1587,4097.2954,0
9.563640,15032.7148,-14925.7937,-7495.8488,-9723.6282,0
9.567546,-15738.2812,-15604.4990,-8396.8081,2701.9882,0
9.571452,7189.4531,-3817.5299,2842.4118,8882.6042,0
9.575358,7045.4102,633.2994,-6519.0881,-7503.6221,0
9.579265,-15246.0938,-13340.6119,-2801.0624,2859.1411,0
9.583171,11314.9414,5469.8232,4078.3508,2391.6451,0
9.587077,11040.5273,3744.9628,1477.9335,-5242.5996,0
9.613403,-15277.3438,-15430.5475,-13918.1757,-14965.1593,0
9.617309,10189.4531,2185.9091,6403.0333,-7029.2296,0
9.621215,7039.5508,13436.2005,-160.9314,-14655.7228,0
9.625122,-15246.0938,-10423.7250,-14180.5091,14124.9055,0
9.629028,12315.4297,1646.4841,5628.2005,-12935.1036,0
9.632934,3045.8984,-6498.4540,10963.2222,-13234.6057,0
9.636840,-15339.8438,-14589.8182,-14883.9443,-13534.1078,0
9.640747,11940.9180,-1140.7606,-385.0323,-13833.6099,0
9.644653,-14947.2656,-10384.2248,15020.7524,-14133.1120,0
9.661334,-15644.5312,-15790.5723,3155.9268,-938.9547,0
9.665240,2064.9414,-2187.6084,-476.0387,11964.7262,0
9.669146,7055.6641,6345.2562,12437.7319,-2416.9160,0
9.673053,-15339.8438,-13845.2362,8133.5324,-15189.8304,0
9.676959,12439.9414,1943.0125,-6368.4776,1468.3973,0
9.680865,7033.6914,-615.6906,-14380.0693,-1633.1080,0
9.684771,-15324.2188,-14703.3173,-7008.4779,-787.1785,0
9.688678,5188.4766,-1739.1458,8437.2308,13125.9304,0
9.692584,-4931.6406,-4598.2852,10426.5540,9950.6534,0
9.704391,-15121.0938,-15442.0750,-11746.1307,-6851.9214,0
9.708298,2687.0117,-1333.4095,1995.8973,4241.8110,0
9.712204,-3005.8594,-8258.1600,1612.2030,-8504.5532,0
9.716110,-15894.5312,-15146.9913,-10744.2411,-5808.4912,0
9.720016,4938.9648,3264.0935,1920.6012,10364.7307,0
9.723923,-954.5898,6847.4916,-10628.8543,-1716.4350,0
9.727829,-15394.5312,-13935.4814,-11937.1357,-5561.8215,0
9.731735,5438.9648,-1682.4189,1337.9202,8255.0242,0
9.735641,-6940.9180,8259.8428,1774.8859,-2226.8745,0
9.749371,-15074.2188,-14961.6969,-10684.4061,-14446.1445,0
9.753277,8314.9414,-383.7830,6353.9585,-9850.4110,0
9.757183,-961.4258,-2565.3234,7246.8171,-5467.4558,0
9.761089,-15457.0312,-14661.3522,-9343.6634,-12747.2726,0
9.764996,12938.9648,1611.1715,8415.9152,-5985.8278,0
9.768902,-10986.8164,-7728.7706,-237.4865,-5546.6283,0
9.772808,-15683.5938,-15013.7398,-11236.5614,-14721.1083,0
9.776714,7814.9414,1189.8089,4513.8722,-14339.2849,0
9.780621,-6952.6367,13834.0255,9127.3480,-14897.4560,0
9.794309,-15449.2188,-14906.2686,-11740.4382,-14326.3918,0
9.798216,6813.9648,-170.8980,4130.9634,-12724.9264,0
9.802122,15055.6641,8285.2629,5129.7263,-11963.3296,0
9.806028,-14871.0938,-13199.3196,-11553.4360,-13565.4617,0
9.809934,13188.9648,-1396.3196,3491.4020,-10283.0599,0
9.813841,-2983.8867,11735.7939,390.9777,-10624.6284,0
9.817747,-15519.5312,-12899.3434,-11451.6319,-14541.0958,0
9.821653,11689.9414,392.4163,152.1724,-11129.2719,0
9.825559,-2962.4023,2934.2240,-13068.5932,-5704.0278,0
9.839398,-15136.7188,-14843.1350,14179.7978,-13001.3100,0
9.843304,13438.9648,7547.1357,7932.5570,-6813.6936,0
9.847211,7011.7188,-5225.4031,-352.7696,-5626.4439,0
9.851117,-15714.8438,-14821.8765,-11913.2663,-14940.8470,0
9.855023,5064.4531,2468.4312,-904.9602,-14015.4601,0
9.858929,9050.7812,1395.1641,1863.9066,-13548.2778,0
9.862836,-15621.0938,-14048.5469,12017.4113,-14340.7000,0
9.866742,4439.9414,-452.3805,1092.1646,-11200.5503,0
9.870648,5044.4336,4641.6058,1629.5489,-7630.9962,0
9.884342,-15761.7188,-15025.8244,-11633.7399,-15019.0015,0
9.888249,937.5000,2299.8209,3140.6464,-6326.4718,0
9.892155,-14995.6055,-4041.6571,1588.8707,5782.7003,0
9.896061,-15808.5938,-14623.9453,-12209.1779,-6743.0988,0
9.899967,62.9883,-2317.0943,-1130.9471,9302.5675,0
9.903874,-4974.1211,13417.6526,-6005.9596,-2511.0887,0
9.907780,15996.0938,-12800.1907,-11615.7279,-15047.0799,0
9.911686,1188.4766,1256.8054,4470.3123,-9400.6255,0
9.915592,1029.2969,4820.4252,11082.2139,1498.7303,0
9.958939,-15441.4062,-15510.9252,-5363.2149,-881.7809,0
9.962845,4689.4531,1219.7746,-7924.7792,-4359.3876,0
9.966751,-6962.8906,10442.3283,-9085.1554,-5956.3033,0
9.970658,-15605.4688,-14138.0647,-10245.5315,-7553.2191,0
9.974564,13565.9180,4696.7039,-11405.9077,-9150.1349,0
9.978470,-6972.1680,-13559.4500,-12566.2839,-10747.0507,0
9.982376,-15769.5312,13768.6398,-13726.6601,-12343.9664,0
9.986283,5064.4531,1593.5417,-14887.0363,-13940.8822,0
9.989403,-15386.7188,-13925.4685,-11343.1162,-12569.1828,0
9.990189,11031.7383,-7813.3304,-8033.3018,-11340.4994,0
9.993310,8062.9883,1283.7412,-565.7815,-10059.8205,0
9.997216,9029.2969,-13448.3545,-7655.0375,-13485.0323,0
10.001122,-15339.8438,-15420.0544,-9814.0388,-15026.1996,0
10.005028,3812.9883,130.8154,7464.7728,-7347.3468,0
10.008935,13030.7617,11985.9984,2720.8174,881.1514,0
10.012841,-15238.2812,-12902.2849,-11662.1461,-14338.1130,0
10.016747,10563.9648,5812.9552,581.6211,-7848.0373,0
10.020653,-6958.9844,-12920.5566,2083.9317,1282.6182,0
10.034372,-15253.9062,15109.4717,13601.7077,-14572.6400,0
10.038278,15439.9414,9622.2087,4104.5387,-5901.4363,0
10.042184,-10976.5625,3592.6488,-6156.9193,1020.9042,0
10.046090,-15308.5938,-13901.4528,-10929.8042,-5404.5173,0
10.049997,12564.4531,3720.9499,6091.1059,5949.3977,0
10.053903,15040.0391,-314.4278,5951.8690,-12202.6118,0
10.057809,-15222.6562,-14134.1631,-11093.5410,-4878.6640,0
10.061715,8565.4297,4527.6174,-379.4783,13085.0742,0
10.065622,-8937.0117,1583.7343,-9415.6008,6803.4217,0
10.079402,-15613.2812,-15399.9500,-10972.6548,-5046.7591,0
10.083308,7065.4297,2781.6230,644.9169,4651.6138,0
10.087214,-12963.8672,-606.7605,-3001.2310,-15094.2082,0
10.091120,-15769.5312,-14688.1095,11828.0850,-5874.2992,0
10.095027,1312.9883,1271.4850,-4499.6677,11463.3142,0
10.098933,-2957.0312,10427.3226,-15075.0067,1004.4057,0
10.102839,-15136.7188,-13710.2039,-9744.0432,-12765.7531,0
10.106745,13315.9180,3953.8263,4933.3901,-3497.5400,0
10.110652,-14944.3359,-9811.3329,-5707.3673,4998.5671,0
10.124346,-15378.9062,-15584.9234,-11773.8596,-5828.8819,0
10.128252,7941.4062,2709.2626,1725.3589,12556.0717,0
10.132159,-12931.1523,6794.8137,7640.4314,3695.0299,0
10.136065,-15035.1562,-13552.0596,12456.0180,-5178.6376,0
10.139971,-13558.1055,669.3365,1721.6933,9293.0606,0
10.143877,-2927.7344,-13180.5086,-1466.8141,-6931.7267,0
10.147784,-14917.9688,-15372.9626,-10484.7284,-5563.5807,0
10.151690,14189.9414,4309.7629,5239.7641,9519.6525,0
10.155596,15053.2227,12362.4253,1763.9382,-440.0519,0
10.170383,-15027.3438,-14877.3166,-7214.5733,2965.9656,0
10.174289,14191.8945,3303.6403,-6392.9272,7233.6752,0
10.178195,13071.7773,6860.8048,-15428.8152,-8382.6815,0
10.182101,-15238.2812,-13379.6580,-6769.3233,1126.8595,0
10.186008,12816.4062,2059.9219,4909.1002,-2177.2802,0
10.189914,-8929.1992,1354.5416,11283.9510,-14184.2065,0
10.193820,-15316.8945,-13878.3576,6972.0247,-1240.6250,0
10.197726,-188.9648,2187.8113,5058.0830,6554.6334,0
10.201633,-7016.6016,10283.9430,9056.8267,1681.4384,0
10.214404,15659.6680,-15120.6530,-9496.4308,-4917.6388,0
10.218311,-7439.4531,248.4727,9590.8791,12170.8156,0
10.222217,2953.1250,-9767.1562,7007.3708,-499.0908,0
10.226123,15019.0430,-15402.0070,-11095.3855,-4774.3175,0
10.230029,-14191.4062,-426.8210,-1659.1047,13786.4462,0
10.233936,933.1055,-2597.3503,-13691.5998,2294.7749,0
10.237842,15065.9180,-14757.9393,-11140.1203,-14672.9639,0
10.241748,-13940.9180,1486.9234,4819.2945,-6586.7989,0
10.245654,-5078.1250,8474.9696,11031.2988,6836.4044,0
10.261287,14440.9180,-5166.8356,-7110.6979,-4223.1101,0
10.265193,7307.6172,-8796.3831,-4320.7965,8258.1920,0
10.269099,-11034.6680,-12425.9305,-13353.4986,-3533.3725,0
10.273006,15448.7305,-15373.0511,-6703.6302,-15511.2836,0
10.276912,-5813.4766,-1821.3285,-5897.0626,-13123.0429,0
10.280818,-15004.8828,11887.8975,-15200.8185,-13029.3310,0
10.284724,-15824.7070,-14680.7282,-4602.6269,448.8784,0
10.288631,-689.9414,4864.9317,6866.1063,2641.7222,0
10.292537,-13024.4141,-14980.8907,3768.8993,-6625.7519,0
10.304087,15870.6055,-12926.1017,-10256.2181,-7965.4913,0
10.307993,-6941.4062,-13671.1095,7530.5295,11898.7510,0
10.311900,-7061.5234,-14366.9289,-15109.1931,4290.9134,0
10.315806,15269.0430,-15062.7483,-11611.2480,-8538.1763,0
10.319712,-3437.0117,-6310.9564,5452.4607,12870.6585,0
10.323618,10983.3984,2123.1765,-10001.6747,5875.7370,0
10.327525,15894.0430,-7067.7469,-15075.5818,-8710.8666,0
10.331431,-1064.4531,-3228.8863,-14530.9308,5015.8896,0
10.335337,14999.5117,7338.7988,-9095.3984,-13091.8852,0
10.363461,15987.7930,-15370.3175,-12744.7234,12528.2226,0
10.367367,-10064.9414,-269.1731,10243.8918,-2509.1448,0
10.371274,-11004.3945,9543.4263,-9511.7355,-15126.4259,0
10.375180,15995.6055,-10372.7516,-12947.6345,7657.2312,0
10.379086,-687.5000,-2065.9914,12319.2722,-6487.9262,0
10.382992,10971.6797,10692.0574,8751.7862,-7932.3426,0
10.386899,15347.1680,-9951.6153,-13323.2979,-8984.6214,0
10.390805,-9312.9883,1746.5785,6303.9176,-10036.9001,0
10.394711,-6959.4727,-4351.1936,-11040.4892,-11089.1788,0
10.409597,-15488.7695,-15174.8757,-7644.9774,-4860.4233,0
10.413503,-1939.9414,-353.9064,7641.2790,5797.6861,0
10.417409,10954.1016,6438.1521,-5112.4002,-7796.4629,0
10.421316,15479.9805,14965.9302,-8430.9124,-4438.1742,0
10.425222,-3312.9883,3212.5604,7619.4070,8962.7473,0
10.429128,2990.7227,1083.7108,-2193.6201,-5044.2387,0
10.433034,15902.3438,-13766.3689,-8739.2792,-15342.5317,0
10.436941,437.9883,6173.5451,5421.8761,-4917.0024,0
10.440847,-1004.8828,-9025.3435,-2130.7106,13334.0930,0
10.454455,14901.8555,15263.2421,-11873.7836,8519.6781,0
10.458361,14061.0352,-3191.3682,-769.9202,244.1321,0
10.462268,4987.7930,-8652.0901,-3528.5371,373.4809,0
10.466174,15589.3555,-15446.3648,-9684.2247,-7540.1382,0
10.470080,-10941.8945,-158.5940,5954.2321,3510.7528,0
10.473986,4916.0156,-11889.0580,7981.3400,-7495.9309,0
10.477893,14800.2930,-15653.4225,12827.0900,-6803.3797,0
10.481799,-15816.8945,2846.4440,6777.2370,7966.4472,0
10.485705,-11052.7344,-7929.7705,10830.6765,3013.1004,0
10.499348,15292.4805,-15399.5787,-9537.4694,-6516.1885,0
10.503254,-10563.4766,4883.1910,2713.3859,9360.3878,0
10.507160,12990.2344,-12752.6543,-13603.1635,-1600.0493,0
10.511066,15707.0312,-15614.2128,-8967.2630,-6552.5410,0
10.514973,437.0117,6895.1135,7268.4794,6364.5625,0
10.518879,14989.7461,12635.0677,-6181.1005,-8265.3521,0
10.522785,-15988.7695,-13006.2952,-10605.5997,-7312.7673,0
10.526691,-2187.0117,-1892.1695,6881.0269,2476.9186,0
10.530598,-4976.5625,-13486.6289,11094.1469,-11375.9492,0
10.544328,-15980.4688,-15829.6467,-8467.4813,-7839.6292,0
10.548235,2312.9883,1123.3843,11050.7800,7072.2127,0
10.552141,-6996.5820,6612.0530,3227.8309,-2867.5260,0
10.556047,-15957.0312,14920.9150,-7758.5882,-7324.2085,0
10.559953,4938.9648,2914.9094,11785.0827,10807.9304,0
10.563860,-962.4023,-718.6714,-2766.6061,2725.7340,0
10.567766,-15574.2188,-14180.9417,-8956.8186,-7950.0207,0
10.571672,5065.4297,915.8550,5573.7436,9638.2376,0
10.575578,1044.9219,-13139.9434,-7519.7904,10470.3513,0
10.589341,-15738.2812,15072.1350,-7935.8126,-7390.1137,0
10.593247,4689.4531,-2101.4683,9809.7927,6322.8107,0
10.597153,-12957.5195,7658.0710,-5925.1482,-5666.7383,0
10.601060,-15667.9688,-13297.1479,-8293.8564,-7041.6407,0
10.604966,5938.9648,4468.0735,11394.8085,9414.9120,0
10.608872,3009.2773,-200.0294,1474.0096,-373.9386,0
10.612778,-15871.5820,14118.4064,-11362.2404,-10533.6519,0
10.616685,-3561.5234,1137.0573,-1800.4528,-1313.3497,0
10.620591,13033.2031,6229.6322,-13145.3932,-5976.0855,0
10.634373,-15925.7812,15329.5801,-9711.4959,-7761.9195,0
10.638279,6689.9414,3763.0360,2211.7908,2840.2020,0
10.642185,-2971.6797,-7839.6824,-15145.8102,-11233.9498,0
10.646091,-15753.9062,13394.6666,-10063.1409,-7564.7256,0
10.649998,11315.9180,6042.4936,2867.5118,5746.2598,0
10.653904,15044.4336,-5800.4885,-10657.4007,-5685.6519,0
10.657810,-15472.6562,-15034.0036,-10993.1159,-6774.1875,0
10.661716,7189.9414,138.1157,5152.1171,11226.9381,0
10.665623,5059.0820,4720.1355,10136.7940,11802.3182,0
10.694364,-14730.4688,-15218.2313,-9077.8606,-5692.6040,0
10.698270,13813.4766,-1715.9724,3311.3848,11453.0542,0
10.702177,-979.0039,6284.6249,-15225.0683,757.7350,0
10.706083,-15699.2188,-13680.8298,-11667.6556,-7152.5677,0
10.709989,7690.4297,-861.4595,3926.3248,2583.9957,0
10.713895,3034.6680,11795.2770,5737.9967,-12445.9344,0
10.717802,-15519.5312,-12870.2834,-8779.8931,-15187.0868,0
10.721708,15941.4062,5914.6390,9111.6167,-15206.1364,0
10.725614,-943.3594,5325.3089,1646.9197,-2579.7863,0
10.738486,-15308.5938,15313.7741,-13794.0773,9699.2262,0
10.742392,12440.4297,4630.1811,6492.9965,-1100.5866,0
10.746298,-6970.2148,2755.3609,476.5365,-14889.5952,0
10.750205,-15660.1562,13317.9158,14385.3515,14173.6430,0
10.754111,9815.4297,5417.3886,-1973.0369,1014.4640,0
10.758017,-8950.1953,-8229.8797,4078.7005,-1227.9303,0
10.761923,-15167.9688,-14883.6943,13284.2058,-3470.3245,0
10.765830,-14808.1055,-704.7754,-10212.8736,-5712.7188,0
10.769736,-10949.7070,-9792.2852,7136.5158,-7955.1130,0
10.784416,-15589.8438,15075.8261,14100.7491,-6623.5996,0
10.788323,9189.9414,1398.0254,7843.8807,5025.8158,0
10.792229,-2956.5430,6296.0442,1675.3930,-8497.9943,0
10.796135,-15425.7812,-13624.7095,13486.7876,-6959.5912,0
10.800041,6188.4766,64.1598,11253.8489,7344.3672,0
10.803948,13025.3906,-6111.1868,14671.1433,-2000.7581,0
10.807854,-15597.6562,-14886.9941,10251.8653,-5417.7054,0
10.811760,7939.4531,2668.6566,-1504.9430,6904.0325,0
10.815666,-6977.5391,-11247.0007,-3673.0326,-5975.0810,0
10.829348,-15933.5938,-15915.2311,11828.5056,-6835.5262,0
10.833254,4063.9648,1784.8709,4436.0280,7178.5068,0
10.837161,-4966.7969,3048.4911,5613.5238,-6731.4442,0
10.841067,-15535.1562,-14228.0097,11139.1284,-5871.1064,0
10.844973,4062.9883,1111.5642,1296.3711,5568.2673,0
10.848879,-10994.1406,8464.9552,4042.8885,-13625.4852,0
10.852786,-15675.7812,-13639.4984,13064.2869,-14553.5803,0
10.856692,11564.9414,7523.9327,10742.2925,-12033.4980,0
10.860598,1013.6719,12713.2508,13002.7126,-9560.3457,0
10.874328,-15707.0312,15819.0805,12614.3691,-8227.7770,0
10.878235,2187.0117,3012.3908,3099.6037,7859.6137,0
10.882141,10994.6289,-2536.9334,-3388.6909,1172.5709,0
10.886047,15871.0938,-14611.6452,12914.4029,-7993.8343,0
10.889953,1563.4766,1930.8063,5010.3669,8546.7898,0
10.893860,-12988.7695,10294.3540,-1619.7118,1217.7362,0
10.897766,-15902.3438,-13047.9009,8305.6422,-8278.2538,0
10.901672,1063.4766,823.3422,-6112.2991,4584.1022,0
10.905578,1002.4414,-9603.2894,14920.7175,523.7832,0
10.919348,15675.2930,15128.9503,13885.2037,9300.9787,0
10.923254,-2937.9883,1417.7291,7300.6843,1457.2900,0
10.927160,7000.4883,11581.9685,-46.7145,3763.5964,0
10.931066,-15628.9062,-12616.2743,8762.6825,-7917.8653,0
10.934973,5562.0117,6765.3776,-4959.4442,4490.6523,0
10.938879,11016.6016,-10589.5882,15200.6096,-7012.5044,0
10.942785,-15613.7695,-15276.6433,8998.3219,-9258.6097,0
10.946691,-1312.5000,-258.3918,-6421.5565,-1061.4899,0
10.950598,13001.4648,9998.0692,11257.5480,-8529.9460,0
10.964366,15925.2930,15691.1034,9726.2452,11910.9799,0
10.968272,-563.4766,4487.6271,-7550.1313,-2689.0536,0
10.972178,-1004.8828,10218.8177,-2934.0216,-15225.9144,0
10.976084,-15972.6562,-12855.2257,10248.0362,-8817.8023,0
10.979991,6315.4297,2605.7148,-1643.4051,1844.5724,0
10.983897,-12962.8906,1404.5090,12204.3071,-11067.8934,0
10.987803,-15628.9062,-14036.5087,11623.7183,-9492.3408,0
10.991709,3061.0352,2698.4579,-3125.7537,1517.0911,0
10.995616,976.0742,13951.0235,-9495.3591,-5975.3471,0
11.009335,-15957.0312,15968.9014,-11912.3349,-10333.7719,0
11.013241,1812.9883,84.0711,-1450.4205,-2023.7141,0
11.017147,-12985.3516,-13713.8875,-10600.5232,-11118.4019,0
11.021053,-15855.9570,-15708.8192,-11356.3215,-9620.2008,0
11.024960,-1688.4766,729.9694,-414.7732,-1022.9705,0
11.028866,-9003.4180,1125.4869,-3023.8933,-920.2063,0
11.032772,15949.2188,14433.8133,14221.6594,10667.5301,0
11.036678,2688.4766,5392.3554,4057.9056,2804.8868,0
11.040585,-6959.9609,14021.3843,-11247.6218,6786.4272,0
11.068148,-14949.2188,-14861.2864,-545.1262,-3824.4247,0
11.072054,11688.4766,5030.9327,-11292.7876,-13848.8905,0
11.075960,-12969.2383,-3948.7635,9730.4859,10892.6449,0
11.079867,-15988.7695,-15041.3652,5852.8918,-3725.2460,0
11.083773,-4312.5000,-3716.7868,7734.8688,-5350.9282,0
11.087679,7003.4180,686.5068,6348.0930,107.2322,0
11.091585,-15957.0312,14669.9723,2940.1886,6156.5315,0
11.095492,312.5000,4857.4428,-467.7159,12205.8308,0
11.099398,11006.8359,-7886.8553,-3875.6203,10527.8275,0
11.113392,-15980.4688,-15410.2665,-14340.8115,-554.7356,0
11.117298,5814.4531,-999.8731,1239.5158,-6852.3898,0
11.121205,1024.9023,3083.3968,-11336.6232,15137.9382,0
11.125111,-15800.7812,-11572.1008,-14037.7754,-2748.2041,0
11.129017,937.5000,-2160.0646,5155.2681,-10830.9594,0
11.132923,-2999.5117,10479.9710,7021.4682,-7580.1226,0
11.136830,15988.2812,-9436.8444,-13871.6350,-4064.4858,0
11.140736,2062.9883,-547.4184,5905.4089,-548.8490,0
11.144642,5000.9766,-2974.7191,-3240.2810,2966.7878,0
11.161345,-15863.2812,-15394.0413,-2202.1923,8412.3855,0
11.165251,5813.4766,3184.4974,11231.0246,-6244.7945,0
11.169158,15002.4414,6833.8891,-2064.4640,-14448.1717,0
11.173064,-15707.0312,-13511.4353,-5982.7943,-4516.3661,0
