timestamp,TP9,AF7,AF8,TP10,label
0.000000,14461.2680,-15996.0938,-10483.6422,-9655.5829,0
0.003906,-536.9257,62.0117,1693.8474,-1935.7495,0
0.007812,-5804.9940,9012.6953,8335.3871,3208.2620,0
0.011719,-12490.3294,14854.4922,11606.3063,5874.5230,0
0.015625,-4813.3355,-14072.7539,690.9768,-6820.5229,0
0.019531,9606.2727,8834.4727,-1659.2296,-8087.8970,0
0.023438,-7395.6881,13331.0547,11109.4767,-10083.6355,0
0.027344,-636.2458,-6071.2891,9157.7516,-2696.6364,0
0.031250,5423.2855,-13135.2539,10805.4069,-4651.9637,0
0.119610,-8678.5303,13299.8047,12314.6609,15321.7593,0
0.122199,-9182.5941,13315.4297,9854.1881,-9610.5795,0
0.123517,-9996.6812,-11072.2656,9376.9834,-8631.5395,0
0.126105,-4097.9950,-7323.2422,6918.4167,2626.1740,0
0.127423,12851.7434,-5162.5977,-2735.9458,-1861.0013,0
0.130011,-7108.8845,830.0781,10321.4659,15291.3291,0
0.131329,-8722.6831,13151.3672,12457.1984,15672.0061,0
0.133917,-9134.3842,13752.9297,5348.5793,-10396.2079,0
0.135235,-10846.5570,-14072.7539,7828.8302,-6687.3420,0
0.137824,-5466.6439,-8325.1953,1492.9726,-8672.7105,0
0.139142,-5000.8836,2850.5859,4568.7288,-4230.6585,0
0.141730,-8509.1437,12801.7578,12212.1368,15757.1924,0
0.143048,-8387.7357,13385.7422,12289.3063,15310.8815,0
0.145636,-8230.0600,13463.8672,4125.1761,-2023.9326,0
0.146954,-6651.0811,-7321.2891,3607.2766,-7835.2732,0
0.149542,-6761.3484,-9573.2422,14574.4920,-14421.3813,0
0.149741,-4761.2181,13573.2422,13595.7786,-13240.2203,0
0.150860,1302.4488,-13154.7852,1467.7710,-6572.1062,0
0.153449,-14780.4504,-7140.1367,-3594.1815,-7164.6177,0
0.153647,-14121.1171,-9572.2656,-4122.3671,-6838.4095,0
0.157553,-3256.4274,-7143.0664,-3805.3017,4468.5139,0
0.161459,-7007.0955,13456.0547,9627.2603,5641.5233,0
0.165366,8590.1622,-9822.7539,-162.7404,-2428.5799,0
0.169272,-1531.5895,-9162.1094,-2458.3040,10476.7433,0
0.173178,-6758.5468,13502.9297,9091.4008,7413.6944,0
0.177084,11389.2254,-5822.7539,3164.9728,8679.6956,0
0.180991,-4636.7957,-9154.2969,5092.7467,-3983.3348,0
0.209508,-2797.1262,13588.8672,9152.1325,3285.8856,0
0.213414,11844.9299,-6322.2656,-3112.9456,6859.6053,0
0.217320,1500.4205,-9155.2734,-5985.8560,10433.3250,0
0.221227,-3242.4053,13416.9922,8172.9151,14007.0446,0
0.225133,8593.6465,-8948.2422,-2327.4634,-1413.8756,0
0.229039,-4088.9795,-1170.8984,-551.9359,-8173.0504,0
0.232945,-2733.3110,13588.8672,8347.4400,7405.1063,0
0.236852,3627.4722,-4821.7773,5822.9399,3209.5272,0
0.240758,4060.0782,14850.5859,-3587.5406,-3951.6475,0
0.240872,3914.4500,13440.4297,-3963.8161,-3884.6895,0
0.244778,4054.3503,-9698.7305,-1835.4850,8750.8450,0
0.248685,-3386.6758,-7170.8984,8728.9049,2268.3488,0
0.252591,3845.4137,13659.1797,4219.3341,-6569.6736,0
0.256497,-4057.4412,-5197.2656,4958.4381,-5107.2402,0
0.260403,-11359.3120,8820.8008,10383.3433,-2050.3553,0
0.264310,887.1081,13057.6172,-1527.1220,1006.5296,0
0.268216,-3501.9441,-9572.7539,2502.3866,4063.4146,0
0.272122,-10401.4681,14849.1211,7725.8620,7120.2995,0
0.284751,-7224.1996,13518.5547,6372.4996,6170.9980,0
0.288658,9262.9455,-5697.2656,2176.6498,1393.3053,0
0.292564,-8640.9456,-13159.1797,12363.9139,13155.7794,0
0.296470,-7320.8397,13588.8672,6787.1109,8833.9487,0
0.300376,6842.1914,-5072.2656,-1872.9557,2004.0162,0
0.304283,-14089.2720,-9167.4805,3233.8915,9688.9839,0
0.308189,-8032.6498,13362.3047,3566.8860,7690.0790,0
0.312095,4153.5374,-10072.2656,-8958.1235,-209.5781,0
0.316001,-14467.4551,6844.7266,-3643.5420,4530.4717,0
0.329732,-9136.9799,13393.5547,4673.0288,5052.6797,0
0.333638,-1256.9644,-11447.7539,-8749.1546,-10384.6936,0
0.337545,-10530.5855,-3156.2500,1114.2787,-53.0441,0
0.341451,-8733.6815,13495.1172,4881.6751,7037.4996,0
0.345357,1378.2851,-7197.2656,-8310.2155,-2712.4064,0
0.349263,-10569.7470,-5146.4844,1021.2375,7111.3659,0
0.353170,-9771.9860,13307.6172,12505.8003,6941.1538,0
0.357076,-6643.0609,-5196.7773,8280.6061,-1400.2484,0
0.360982,-14639.3756,2839.3555,-8496.8715,5492.7657,0
0.389736,-10314.6362,13635.7422,3191.6119,5408.1295,0
0.393642,-5279.2231,-5447.7539,-11330.8367,564.9341,0
0.397548,90.1335,-1156.7383,-3532.2517,12804.6238,0
0.401455,-10488.4282,13534.1797,1696.4428,4383.0330,0
0.405361,-9744.4168,-10195.8008,-7090.8261,-2618.0948,0
0.409267,-12356.8064,-13119.1406,9455.0992,10767.5551,0
0.413173,-9303.7057,12979.4922,11346.4069,5768.2922,0
0.417080,-1126.0777,-11321.2891,13126.1343,-2879.7176,0
0.420986,1365.5646,-1164.0625,14678.0447,2964.9560,0
7.472971,-9970.2251,13463.8672,11131.1388,15678.5039,0
7.473141,-10112.8143,13495.1172,11103.9562,15663.5098,0
7.473318,-10034.8515,13534.1797,11344.0423,15533.0670,0
7.473482,-9918.2462,13502.9297,11717.6531,15666.7420,0
7.473640,-10150.2324,13721.6797,11858.0278,15534.6521,0
7.473800,-10724.4203,13291.9922,11874.3156,15382.2296,0
7.473964,-11523.4194,13729.4922,11995.0862,15218.2161,0
7.474194,-11877.3597,13260.7422,12086.4531,14911.2205,0
7.474421,-11314.1019,13002.9297,12490.0957,15195.6516,0
7.474587,-10916.4420,13635.7422,13047.1461,15352.2554,0
7.474744,-9981.0868,13885.7422,13108.7609,15319.7723,0
7.474901,-9974.5344,13791.9922,12999.9013,15457.6050,0
7.475070,-9913.5618,13573.2422,13041.9282,15630.8557,0
7.475232,-9842.2853,13659.1797,13102.8555,15904.7139,0
7.475368,-9951.9738,13549.8047,13407.4549,15880.3457,0
7.475462,-10489.2775,13635.7422,12899.1120,15784.9699,0
7.475556,-10766.5780,13487.3047,12453.5396,15452.9414,0
7.475648,-10643.2105,13831.0547,6455.5110,15273.1230,0
7.475741,-10686.5484,13737.3047,0.0000,15316.5147,0
7.475834,-10634.0688,13940.4297,2677.8265,14993.4968,0
7.475925,-10802.9249,14018.5547,5684.7604,14526.4818,0
7.476022,-10967.9458,14183.1055,3037.9073,14941.8294,0
7.476114,-10746.2872,13948.2422,0.0000,14388.5058,0
7.476205,-10883.7443,14002.9297,0.0000,14466.5327,0
7.476297,-10690.1060,14175.2930,0.0000,14684.4397,0
7.476407,-10688.0082,14690.9180,8247.7842,14943.0426,0
7.476499,-11143.1383,14253.4180,7698.1931,14757.4740,0
7.476593,-11434.8622,14394.0430,-402.8636,13891.9171,0
7.476688,-12077.5938,14276.8555,-406.7383,-822.8034,0
7.476781,-8240.5293,14323.7305,-14080.1329,13926.0871,0
7.476878,-12228.8121,-4947.7539,-3624.5554,14632.4190,0
7.476878,-12225.7935,14159.6680,-3656.3059,14635.6908,0
7.476971,-9611.9255,13877.9297,7766.1065,6144.9018,0
7.477047,-12791.9466,-10322.7539,-5927.1245,14004.6076,0
7.477064,-13183.5273,14081.0547,-4504.7936,13793.2387,0
7.477160,-6711.5008,13627.9297,-6126.0795,9660.7735,0
7.477225,-11960.8295,-4947.7539,-3298.2118,4421.4365,0
7.477255,-13674.1671,13081.0547,-8128.4741,-2166.2682,0
7.477341,4326.4066,13432.6172,-2421.4707,13945.7285,0
7.477388,-1234.2000,-3821.7773,1370.0015,7390.3757,0
7.477454,-8234.2860,13198.2422,-23.1072,6112.8965,0
7.477534,-12070.8463,13596.6797,1884.7296,12924.9653,0
7.477547,-12099.4919,-3072.2656,2054.6188,12798.5361,0
7.477614,-11117.6043,13346.6797,-2158.3794,4213.2088,0
7.477694,-11498.6047,13752.9297,2293.1561,13047.1047,0
7.477706,-11430.7231,-9445.8008,2301.3055,13106.2980,0
7.477776,-4213.1860,14472.1680,1844.2963,3161.0166,0
7.477857,-11113.4439,14112.3047,8911.7388,14136.6685,0
7.477870,-11169.0802,-5447.7539,10751.4670,14194.2567,0
7.477936,-11777.9183,13713.8672,7226.8761,3445.0416,0
7.478015,-8005.8405,13924.8047,-398.8601,-7791.6523,0
7.478098,-11613.5818,15565.9180,-406.7383,-14996.1055,0
7.478100,-11606.4071,-7445.8008,-406.7383,-14993.1187,0
7.478179,-11344.5515,-15652.3438,-406.7383,15635.4933,0
7.478258,-11521.0324,15996.0938,5568.4725,15544.8047,0
7.478327,-11430.7468,-7071.7773,-1907.4217,10382.0205,0
7.478342,-11515.7419,15448.7305,-2790.3038,8846.5986,0
7.478430,-5604.6234,14972.1680,1738.4758,14938.7275,0
7.478493,-12083.3029,-10199.2188,-8585.6430,14882.1224,0
7.478509,-12150.1695,14198.2422,-4511.1857,14911.6992,0
7.478588,-4678.7656,14237.3047,-5945.3537,8655.2536,0
7.478650,-12723.9206,-5698.7305,0.0000,499.1964,0
7.478670,-12856.2219,13682.6172,0.0000,-5755.3669,0
7.478752,-6060.4719,13799.8047,-9879.4316,14330.9457,0
7.478807,-11424.2791,-5321.2891,0.0000,4339.3930,0
7.478830,-12403.3990,14409.1797,0.0000,-2197.3911,0
7.478909,-7623.0775,14034.6680,-11013.0205,14706.4526,0
7.478976,-12507.1577,-6822.7539,0.0000,14681.2921,0
7.478988,-12461.6712,14182.6172,0.0000,14651.8811,0
7.479069,-7000.0956,14323.2422,10421.0006,9443.0757,0
7.479138,-12595.1857,-3446.2891,284.7819,-3859.4796,0
7.479149,-12627.7753,14112.7930,388.9692,-8113.5929,0
7.479229,-5335.0468,14135.7422,-11611.5223,-1132.8553,0
7.479275,332.1108,-5947.2656,-7751.4840,-1411.6742,0
7.479368,-7394.5271,-4947.7539,-491.3786,6188.8452,0
7.479457,-7998.7950,13862.3047,3350.0192,-11351.8556,0
7.479463,-8397.4951,-3447.2656,3438.6414,-12427.8037,0
7.479541,-9465.0822,14644.0430,-5690.1893,8690.1241,0
7.479554,-10216.5914,-4321.2891,-2775.0936,12808.1167,0
7.479623,-9905.2066,14002.9297,2856.5412,6728.5186,0
7.479648,-10470.3823,-3447.2656,3553.9672,10187.8425,0
7.479723,-10940.8548,13792.4805,3003.3862,7912.6262,0
7.479740,-11321.5995,-1195.8008,4264.7863,14351.5065,0
7.479815,-11036.0867,13604.4922,-1618.7421,15085.9375,0
7.479831,-11326.2046,-1444.8242,1682.8879,15755.7374,0
7.479895,-14224.0137,14276.8555,12232.0520,-7651.2542,0
7.479929,-13261.4296,1929.6875,14724.0422,-15510.5677,0
7.480008,-12705.8424,14979.9805,-67.3198,-14952.9955,0
7.480020,-12481.1663,-695.3125,-178.9323,-14823.6183,0
7.480084,-12074.2226,15667.4805,-125.6052,-9716.8807,0
7.480111,-12138.9317,-319.8242,-306.5911,-8980.3190,0
7.480164,-10313.0480,-13089.3555,-214.8912,-5234.5359,0
7.480204,-10608.3207,429.6875,-1384.2654,-903.3938,0
7.480240,-10652.5896,-11385.7422,-527.4643,14792.9361,0
7.480313,-11931.0740,12431.1523,1623.0831,12835.3612,0
7.480318,-12017.4852,-13386.2305,2921.7783,12612.8660,0
7.480399,6992.8322,-15355.4688,5479.8220,13379.4586,0
7.480406,4952.2343,8681.6406,5914.6100,13341.8442,0
7.480485,10386.3980,15425.2930,-9487.3161,13089.5596,0
7.480499,4673.2754,9680.6641,-10816.3116,13129.9667,0
7.480561,-4460.9430,14214.3555,-884.6571,2672.4700,0
7.480594,-7840.1284,3931.6406,10981.9998,5526.3192,0
7.480645,-15078.1415,12643.5547,-5552.0718,2054.7595,0
7.480687,-14851.0771,2306.1523,-11412.4785,9131.2065,0
7.480722,-9317.0887,8697.2656,-7961.3709,8321.9651,0
7.480784,-11877.5984,12840.8203,-706.5625,14612.1069,0
7.480784,-12137.3319,2053.7109,-634.4730,14611.1020,0
7.480807,-5561.0147,5282.2266,2998.8063,14520.2744,0
7.480877,-11011.9942,-5816.8945,6139.3949,-2661.4721,0
7.480890,-5626.4263,6017.0898,4759.0827,-8329.4421,0
7.480953,-14193.2485,-11145.0195,1611.9014,-14811.1694,0
7.480968,-14153.4013,15.6250,2710.8952,-14786.8793,0
7.480970,-14145.4090,-820.3125,2931.3226,-14782.0074,0
7.481048,15439.6092,117.1875,3279.8031,-6523.8673,0
7.481066,13681.9126,-9946.7773,4037.1533,-12912.4360,0
7.481129,-8200.4453,765.6250,-4497.0757,-3202.9068,0
7.481131,-7813.0634,12844.7266,-4321.2495,-2952.7280,0
7.481161,-3023.2316,-8323.2422,-678.3420,-3893.1135,0
7.481204,-532.9231,257.8125,9162.0130,-6521.4835,0
7.481247,10325.0826,-7200.1953,-1028.0034,-2414.4651,0
7.481280,0.0000,-414.5508,-8697.2318,-3414.9453,0
7.481295,0.0000,-3165.5273,-10478.9398,-678.4659,0
7.481357,2556.3377,-398.9258,-9129.5010,452.4615,0
7.481360,2241.7505,-12946.7773,-9734.1998,392.8588,0
7.481435,2350.9041,-406.7383,-8745.7654,-1689.5451,0
7.481440,2121.7900,-5572.7539,-9357.5665,-1194.8281,0
7.481453,1586.0768,-9148.9258,-10788.0765,-38.0833,0
7.481512,-3554.2009,562.5000,-4848.3235,-2126.0191,0
7.481520,-2833.3599,-7697.2656,-7305.7591,-1017.0097,0
7.481587,8108.2908,0.0000,1994.8302,3775.2378,0
7.481600,6017.8895,-4821.7773,804.3725,626.5692,0
7.481612,4189.6898,8873.0469,-236.7647,4628.1112,0
7.481660,5878.0446,2.9297,-404.2906,-2822.8124,0
7.481683,3357.1997,4179.6875,-842.1966,-1919.8373,0
7.481734,-4109.0148,-406.7383,-11968.2312,-3997.3459,0
7.481764,9225.4956,-7323.2422,-6392.3707,-418.7331,0
7.481777,6684.3615,2837.4023,-3890.3820,-434.0923,0
7.481832,4880.9539,-7541.9922,4632.2728,-2886.6275,0
7.481842,3992.5303,-12694.8242,3870.4977,-1657.5339,0
7.481907,9747.7538,0.0000,-4283.0171,3622.7968,0
7.481921,7254.4199,-4445.8008,-3093.9700,663.5159,0
7.481981,754.5566,0.0000,-4774.0261,3254.7508,0
7.482004,665.4832,-3938.9648,-2852.5117,-2886.7419,0
7.482006,603.5717,12857.4219,-2694.1451,-4014.0162,0
7.482059,7430.1631,-9104.4922,-3968.5891,4052.8389,0
7.482086,6302.3014,6063.9648,619.6711,-529.5768,0
7.482156,10181.0790,0.0000,14788.6088,-522.3595,0
7.482165,8022.7795,5438.4766,14823.4831,-469.4963,0
7.482233,2480.5729,-9165.5273,-4256.0280,-5717.5733,0
7.482238,2261.6979,0.0000,-3806.8430,-4709.1741,0
7.482248,1836.7303,-8689.4531,-2934.7054,-2751.2663,0
7.482318,-1593.6971,14062.0117,-13874.7034,-5176.7100,0
7.482336,3262.8635,10806.6406,-7928.2337,-1122.2561,0
7.482397,-7502.0888,-406.7383,5687.8841,2065.8180,0
7.482399,-7192.2208,-11168.9453,5237.4880,1712.9051,0
7.482415,-5337.9704,-820.8008,2542.3180,-398.9258,0
7.482475,-9720.6982,-406.7383,8274.6244,-4293.0736,0
7.482494,-8350.5048,-1195.8008,5668.2047,-786.1377,0
7.482555,-5616.3422,-406.7383,-4255.4110,842.9546,0
7.482557,-5438.3319,8840.8203,-4766.2842,713.9678,0
7.482577,-3547.5309,-569.8242,-10192.7107,760.3763,0
7.482628,-10943.8214,-406.7383,6717.7699,584.8729,0
7.482658,2526.9231,-1321.2891,11452.2237,-340.1296,0
7.482714,-10835.2780,10842.7734,4149.9729,-285.1247,0
7.482715,-11701.7864,-398.9258,4518.4722,-293.6696,0
7.482737,-11651.3334,-197.2656,10131.2599,1777.7929,0
7.482816,-341.0792,3804.6875,-3884.2801,4399.9452,0
7.482834,10556.8112,-406.7383,-2053.2874,3489.0820,0
7.482882,-7156.8015,-1147.9492,-9395.3721,3836.4166,0
7.482894,-1078.1139,-1819.3359,-7145.4085,5607.8210,0
7.482913,-3371.7453,-5931.6406,-3808.3183,8235.1242,0
7.482975,2513.8699,-194.8242,4912.0721,-3699.4951,0
7.482986,6351.4807,-15801.2695,3624.5813,-4465.7592,0
7.483044,-828.9708,8856.9336,-159.1497,2074.5658,0
7.483055,-2087.0314,5430.6641,3127.8295,2734.3550,0
7.483059,-2585.2826,10533.6914,4429.6280,2995.6626,0
7.483132,2887.6991,-15730.4688,3796.4575,591.9046,0
7.483135,3385.2983,-2946.2891,3519.8785,459.5544,0
7.483181,2201.2387,10853.0273,-974.7012,3465.3046,0
7.483212,-2420.5658,-9111.8164,-3668.8553,5151.8729,0
7.483274,-415.4293,-11155.2734,2270.7526,-13966.7597,0
7.483284,-416.5005,-8189.9414,3288.0541,-14427.3839,0
7.483357,-12314.6762,-9119.6289,-406.7383,-406.7383,0
7.483363,-10965.4556,-2819.3359,-406.7383,-406.7383,0
7.483369,-9742.0903,-11166.0156,-406.7383,-406.7383,0
7.483430,-536.7221,-9393.0664,-3793.4570,1961.5180,0
7.483447,9033.2014,4805.1758,-2299.3164,-238.3127,0
7.483460,5850.8534,-13138.1836,-1118.7904,9500.8814,0
7.483505,-12172.6093,-11104.4922,-673.0564,-2549.3133,0
7.483529,9434.7911,-1945.8008,-256.3044,-3677.4059,0
7.483554,1858.3556,-1147.9492,4127.7973,-10665.7189,0
7.483591,-1739.9375,-12948.7305,13164.4238,-265.4762,0
7.483630,7175.3408,2554.6875,87.4546,-8750.3113,0
7.483646,1659.1901,-13133.7891,-890.9895,-6349.1190,0
7.483671,1008.3769,-13707.0312,-540.2412,-11852.6792,0
7.483721,3917.1904,-443.3594,-1743.7533,-1339.5512,0
7.483738,48.3077,4880.8594,-3296.2923,-2011.8987,0
7.483746,376.2741,15815.9180,-4130.5138,1923.6481,0
7.483801,-660.2172,14305.1758,5079.3013,8837.0824,0
7.483818,-6336.1671,12995.1172,-2571.4443,13093.8883,0
7.483835,-454.5642,-3126.4648,-9858.4502,888.7214,0
7.483891,-573.8906,15714.3555,4536.3251,7605.1643,0
7.483915,-608.9949,-9067.3828,1352.9792,5754.4546,0
7.483927,-536.7057,4868.6523,-281.5421,-1786.5190,0
7.483963,9533.5134,14995.6055,-2863.4538,6197.0980,0
7.483991,-9605.2236,-1062.9883,-280.1070,5220.5024,0
7.484018,-404.8355,14882.8125,-3781.1128,-13845.3355,0
7.484035,-99.3585,14370.6055,-6059.2253,-11825.9476,0
7.484070,6203.9786,-14924.8047,-421.2590,-315.0965,0
7.484105,-1753.3089,12424.8047,-2867.4053,-12593.3892,0
7.484110,-2081.6521,10898.4375,-2843.8431,-12994.6736,0
7.484146,-1773.0645,5578.6133,-366.3274,-2802.8861,0
7.484179,1755.8389,12260.7422,6261.3109,-11565.8100,0
7.484219,2972.7284,8890.6250,595.4891,-6495.4383,0
7.484224,1721.0995,15822.7539,1442.3945,-4680.4234,0
7.484251,-1790.3314,12385.7422,6391.4396,1656.2842,0
7.484305,-972.6858,11939.9414,1356.3381,-9652.6411,0
7.484312,-1017.4499,-5086.4258,2009.9390,-9623.8494,0
7.484325,-2867.4551,13964.3555,3284.8965,-10014.0381,0
7.484391,-1012.3185,-11192.3828,-5985.1254,7240.6077,0
7.484405,-2774.9668,12874.5117,-9477.9957,12053.7935,0
7.484407,-2958.8953,14409.6680,-9842.4691,12556.0390,0
7.484467,1399.3004,4928.7109,-7841.9689,6567.7757,0
7.484478,3433.7652,15394.0430,-7717.7601,5388.1874,0
7.484501,4279.4230,6906.2500,-7453.4552,-6217.5187,0
7.484551,-1873.9674,-1323.7305,-6003.9607,-6128.1943,0
7.484557,-2155.1589,14729.9805,-3213.9367,-5912.6844,0
7.484593,-2345.4043,-11117.6758,15147.5894,-234.0207,0
7.484626,-12816.8708,14339.3555,-54.2058,2795.5815,0
7.484629,-12378.5846,7905.2734,-1138.6785,1335.1790,0
7.484690,-13211.0576,14166.9922,7124.3684,2995.7639,0
7.484691,-13661.0371,-15129.3945,7016.0599,2878.0728,0
7.484698,-11735.1418,15613.2812,5163.7001,865.2476,0
7.484714,-3848.4938,-8977.0508,1557.3570,-3063.4187,0
7.484768,10251.6476,-15582.5195,1841.3369,-10303.5563,0
7.484783,6476.9927,-9072.7539,7065.4625,-9395.0159,0
7.484796,344.4923,895.9961,-3163.1389,-12362.6405,0
7.484838,-2304.7834,11971.1914,-7900.4278,3279.6023,0
7.484859,-10971.9239,13416.9922,-11881.5476,-1747.8509,0
7.484874,-968.1768,125.0000,-13698.6931,-5909.8178,0
7.484877,1038.2954,886.2305,-12122.5470,-6744.5921,0
7.484907,6069.7299,10056.6406,4643.8106,11033.7789,0
7.484955,1998.9544,1000.4883,12474.2346,1562.7426,0
7.484973,5935.1707,-1127.4414,8849.0044,2740.6313,0
7.484977,3044.9174,10119.1406,7963.7903,3028.2499,0
7.485036,-4551.1345,48.3398,-5553.8007,-130.4318,0
7.485037,-1191.2166,13581.0547,-5336.6587,-120.2438,0
7.485049,13727.8315,10213.3789,-3630.2028,-40.1791,0
7.485067,7712.7623,-13173.3398,-837.7391,1430.1251,0
7.485110,-6982.9023,0.0000,1040.4324,-2452.4214,0
7.485118,-4069.2293,13503.4180,11760.2539,-1390.4412,0
7.485154,-7197.7445,-5221.6797,-15012.1363,-5114.7151,0
7.485186,-10141.6026,-6001.9531,-4140.8505,-7964.8647,0
7.485188,-10125.0875,13589.3555,-3384.3356,-7015.4107,0
7.485201,-10030.5839,13995.1172,-1737.8297,-1582.4235,0
7.485259,-10932.2722,13674.8047,7231.6027,-13314.6728,0
7.485264,-10972.5811,-6376.9531,8303.1252,-12717.4159,0
7.485266,-10993.2698,-5178.2227,8853.0885,-12410.8714,0
7.485328,-2687.1082,13807.6172,12229.9976,-11374.7674,0
7.485341,-2185.7307,-6376.9531,12295.1970,-10835.6185,0
7.485347,-1972.7140,-3156.2500,12322.8979,-9976.3308,0
7.485359,-1474.6397,13838.8672,12387.6678,-317.9798,0
7.485418,-4296.7764,2125.0000,-3012.1440,5682.3573,0
7.485426,-7046.0704,861.3281,2760.3672,1866.5523,0
7.485438,-3086.4607,14034.1797,11828.4930,-692.2455,0
7.485493,-5911.9552,0.0000,-5890.1455,-7280.7498,0
7.485506,-6087.4840,12854.4922,533.3813,-6794.8512,0
7.485509,-6114.8600,13323.2422,1535.2158,-6719.0688,0
7.485518,-6240.9960,13456.0547,6151.1975,-3989.4583,0
7.485567,-6781.3848,-9750.4883,14178.0573,13365.3861,0
7.485579,-6775.0922,15104.9805,14279.8603,583.6842,0
7.485589,-6769.5943,-1149.4141,14368.8040,-8416.5846,0
7.485641,-10306.3487,-6626.9531,-14216.9320,760.2781,0
7.485648,-9438.8587,13761.2305,-14508.5578,-2042.5609,0
7.485670,-7719.2032,10848.1445,-15380.1741,-11386.3511,0
7.485683,-7047.4880,13276.3672,-15902.1417,-4392.7746,0
7.485720,-6367.5079,14737.7930,116.7393,14236.5215,0
7.485739,-524.6347,-1673.8281,-8218.9283,-12643.5556,0
7.485748,-2225.2374,-15062.9883,-12423.6613,-9599.6277,0
7.485790,-6606.3639,14683.1055,-8399.2627,-6880.4371,0
7.485814,10019.0715,0.0000,-12904.4676,-11907.7914,0
7.485827,2671.2933,14899.9023,-15518.7261,-7937.7568,0
7.485862,-6670.2970,14800.2930,162.0323,-8551.1724,0
7.485888,2854.7221,625.9766,-12546.1842,-10673.0406,0
7.485910,-4778.2159,-3033.2031,-6111.4613,-5891.0053,0
7.485912,-5715.5242,13518.5547,-4831.3760,-5613.3018,0
7.485931,-6645.8656,15128.4180,459.3045,-3799.8877,0
7.485965,-8176.6254,-12669.9219,12629.7627,6345.5716,0
7.485992,-7750.2566,-14972.6562,3592.7638,-619.5837,0
7.486002,-7444.2595,14901.8555,-684.7104,6008.5836,0
7.486062,-7810.5850,2250.0000,11649.2161,-8568.6801,0
7.486071,-8597.7758,12978.0273,10677.3593,-7623.7516,0
7.486071,-8622.8796,15308.1055,10646.3664,-7593.6174,0
7.486140,-10458.7253,13276.3672,953.6760,-7883.4809,0
7.486141,-10390.9082,14706.5430,1387.5681,-8200.9096,0
7.486145,-10178.0257,0.0000,2749.5869,-9197.3413,0
7.486154,-9633.0193,12973.6328,6236.5277,-11748.3326,0
7.486216,3036.5245,14636.2305,9367.0033,-13962.4282,0
7.486224,8640.5920,-3.4180,8918.2249,-14173.5572,0
7.486242,-201.0127,-13084.4727,-7822.0374,-8611.4257,0
7.486287,-7443.1211,14948.7305,4130.3261,-2722.4936,0
7.486303,-12644.7402,-6501.9531,-4978.6990,-14277.5096,0
7.486305,-12404.4059,13393.5547,-6457.7112,-14805.8585,0
7.486321,-10966.2452,-3114.2578,-15308.1205,-6501.9531,0
7.486357,-7309.7044,15300.2930,-9126.7579,13558.9347,0
7.486381,12254.1763,-6501.9531,10059.2689,7081.9835,0
7.486400,-4344.0893,-7120.6055,15468.6928,-5175.8357,0
7.486427,-9656.0745,14792.4805,7099.8053,-5345.3956,0
7.486461,-1678.6905,-6501.9531,12682.1000,3648.8155,0
7.486463,-2534.0224,13627.9297,14478.7520,2601.1059,0
7.486483,-11222.6796,-3118.6523,3565.8184,-3085.4146,0
7.486500,-8866.7431,-15895.0195,-5816.5418,12858.7462,0
7.486535,-2546.6210,-6501.9531,7957.3350,-428.8181,0
7.486565,-6486.9686,-9126.4648,11493.0536,-6516.2698,0
7.486620,-5062.2782,13010.7422,-3397.1682,-6711.0649,0
7.486621,-4932.1717,-6376.9531,-3698.8217,-6696.3720,0
7.486643,-3266.4373,-15147.9492,-8293.4502,-3318.4484,0
7.486722,-6641.1996,-1132.8125,10028.5980,12371.2806,0
7.486740,-8754.3481,-6501.9531,5301.2638,14713.0249,0
7.486788,-7678.9775,13690.4297,-11640.4865,-3888.0403,0
7.486801,-6474.0783,6878.9062,-8852.8725,-2796.8012,0
7.486819,-5945.6608,12841.3086,-4718.3525,-1178.3023,0
7.486882,-7292.1452,2901.3672,9382.6341,19.6823,0
7.486892,-8163.8602,-6316.4062,6923.5036,1537.3453,0
7.486950,-5866.8316,13745.1172,5650.5761,-5657.4675,0
7.486961,-3559.3198,10887.2070,2344.2911,-5432.9152,0
7.486965,-2645.4366,-8829.1016,1034.8466,-5343.9819,0
7.487039,-8125.6729,-8432.1289,9394.2698,40.1976,0
7.487042,-8351.5074,-11108.3984,8348.2654,-826.8344,0
7.487087,-7814.1242,13745.1172,-4109.6509,5138.5489,0
7.487118,-7881.9647,-14911.1328,7238.3267,10208.8702,0
7.487181,-6626.9531,13643.5547,-1311.4295,-9228.4361,0
7.487191,-6626.9531,15838.3789,660.6882,-12185.4075,0
7.487263,-9783.9629,6963.3789,-6626.9531,-6501.9531,0
7.487269,-9426.0253,4885.2539,-6626.9531,-6501.9531,0
7.487275,-9101.4761,13495.1172,-6626.9531,-6501.9531,0
7.487336,-10650.7610,7086.4258,6918.4774,637.5166,0
7.487353,-9649.1368,-15104.0039,1052.8463,-5994.2086,0
7.487367,-8631.1550,13729.4922,-3581.6106,-8096.5671,0
7.487411,6446.8162,15581.0547,1941.8161,3572.8375,0
7.487436,-9187.6146,14908.2031,-4177.4166,-8044.5197,0
7.487460,-7400.5791,13768.5547,-7403.8812,-8295.6127,0
7.487497,-11684.3459,-12179.1992,-5869.2521,12590.6026,0
7.487536,-9693.9370,-1138.6719,-6009.0105,11579.2485,0
7.487552,-7464.9269,13807.6172,1139.5310,14477.7565,0
7.487577,-8870.0350,-10560.5469,11524.2838,13394.0769,0
7.487628,-8217.1543,8898.4375,-7188.7752,1818.0264,0
7.487644,-6656.6359,13971.6797,-8131.4612,2730.5301,0
7.487653,-6677.6681,-13819.3359,-8637.9921,5806.0340,0
7.487707,-6756.0390,-11139.6484,3386.8889,-8527.8487,0
7.487725,-7155.9782,-6447.7539,5101.7052,-12635.6973,0
7.487741,2406.4547,13878.4180,6734.9940,-857.6226,0
7.487798,-9172.2432,12428.7109,-1485.4275,14907.4954,0
7.487821,-9699.5809,-3061.5234,-4716.0833,12558.4811,0
7.487833,-8509.4415,14112.7930,-6374.8963,6606.5308,0
7.487870,8262.1712,-13066.4062,-3603.8737,12985.7825,0
7.487897,-6069.5396,6994.1406,-4477.6766,11909.3998,0
7.487924,-6625.5311,14003.4180,-7345.6143,13434.8057,0
7.487941,-2650.4668,5430.1758,-7479.3847,14166.5487,0
7.487977,-5252.1428,-10733.3984,-6522.5055,-9260.3991,0
7.488012,-2215.9670,9548.8281,-9984.7434,-8932.5190,0
7.488016,-1134.1307,14440.9180,-9951.3937,-8932.7485,0
7.488052,-2150.8754,-12738.7695,-5838.8847,10162.4061,0
7.488085,-8989.8499,4171.3867,-417.1278,327.9839,0
7.488126,2507.8003,14300.2930,-5719.9262,5827.0592,0
7.488130,-867.5699,5157.2266,-5059.0953,7564.3103,0
7.488157,857.4677,2046.8750,-1197.4100,-2902.1499,0
7.488211,-7220.4566,6988.7695,-430.7233,-3328.0119,0
7.488218,-6771.6986,14612.7930,1819.9798,-2545.7672,0
7.488231,-7215.8522,3804.1992,6210.3513,838.4166,0
7.488297,-5864.0284,-13108.8867,-2926.0171,-1997.0951,0
7.488311,-3614.3784,14394.0430,-686.9683,65.9937,0
7.488313,-3379.6324,5681.6406,-453.3285,281.2725,0
7.488373,-8961.3629,-11143.5547,-2580.7411,6665.1231,0
7.488384,-10890.7093,-565.9180,-4049.0159,4828.2920,0
7.488407,-7581.5546,14354.9805,-7173.3680,-5634.4638,0
7.488457,-841.8665,-1309.0820,-1947.1898,-2318.2113,0
7.488463,-4393.9044,9807.1289,-4072.8429,-5729.5669,0
7.488499,-14403.4299,14175.2930,-12290.8357,8695.3911,0
7.488533,-4765.8983,-5936.5234,-4494.8678,10348.0641,0
7.488535,-3867.8378,14493.1641,-3938.7155,9293.7590,0
7.488596,-4092.1967,-2574.2188,-151.4391,13712.0767,0
7.488597,-4270.7667,14659.6680,-236.3952,13720.4955,0
7.488605,-4617.7452,2312.5000,-1689.3678,13864.4781,0
7.488620,-4129.3055,2387.6953,-4518.1475,14148.3572,0
7.488674,-12303.8349,-8191.4062,-8699.3737,2953.8829,0
7.488689,-9981.9931,13886.2305,-4675.2926,6257.1829,0
7.488703,-3032.2177,-1710.9375,7092.9207,11343.0462,0
7.488744,-762.1865,-13705.5664,-2679.0070,-8655.5497,0
7.488766,-7231.1391,-11322.7539,-5950.2201,-7304.8711,0
7.488780,-2533.6522,0.0000,-7662.5810,-8838.3150,0
7.488783,-1591.4675,13932.6172,-6948.9775,-9145.8811,0
7.488813,-835.8604,-209.4727,642.0273,-3566.8815,0
7.488861,-3664.5739,30.7617,6760.8330,5573.5116,0
7.488879,8450.9022,13760.7422,3824.2550,12795.4924,0
7.488883,8877.7935,-4459.4727,3107.1969,14558.9665,0
7.488942,-2563.4568,-2000.4883,-227.2854,-2085.0305,0
7.488943,-4465.6485,-2196.2891,-218.3990,-1922.1689,0
7.488955,-12435.1853,-14204.5898,-148.5635,-642.2868,0
7.488974,-6986.5098,13284.1797,-34.2839,-6608.4203,0
7.489017,148.7194,9.7656,6457.6200,6918.6025,0
7.489025,-4193.8767,4181.6406,-5330.0781,3922.6171,0
7.489060,2540.1424,13393.5547,6382.1750,7663.5576,0
7.489092,12501.1895,5960.4492,2016.7115,8501.2472,0
7.489094,12062.7676,6679.1992,1712.9261,7487.8535,0
7.489107,9554.0200,-697.7539,1217.7218,1688.9895,0
7.489165,-10326.7610,-8696.7773,-722.6621,3329.6869,0
7.489170,-9276.5343,13971.1914,-829.7405,3467.4748,0
7.489172,-8737.5013,13166.9922,-884.6990,3538.1950,0
7.489235,-11638.0833,-13947.7539,1254.0778,10879.7522,0
7.489247,-9466.5767,-6025.3906,891.8877,10108.6708,0
7.489253,-8543.9844,13432.6172,738.0066,9217.5109,0
7.489265,-6386.7842,-4072.2656,378.2027,293.7936,0
7.489325,6436.2110,0.0000,1316.1736,-1744.6525,0
7.489332,8063.2290,13823.2422,-229.2746,2529.8853,0
7.489345,2072.0660,-1567.8711,-2548.4884,9435.4380,0
7.489399,5006.2481,0.0000,-2657.5642,-5444.1838,0
7.489413,824.6979,13729.4922,4202.8708,-5876.4969,0
7.489415,172.5295,-7446.7773,5272.8468,-5943.9219,0
7.489425,-2832.3555,-6946.7773,10202.7931,2817.2185,0
7.489473,-12257.9667,-44.9219,5694.1571,-11500.1890,0
7.489485,-12208.5538,6680.1758,8976.8252,-9264.9830,0
7.489495,-12165.3824,13377.9297,11844.8405,-1907.1596,0
7.489547,10645.6855,-10025.8789,4233.5807,-52.3234,0
7.489554,-6405.2734,181.6406,4349.5507,-3129.6962,0
7.489576,-10481.3155,14159.6680,4696.1640,11170.9041,0
7.489589,-9598.9533,-8697.2656,4903.7334,13100.2885,0
7.489626,-10100.5583,6055.1758,-7020.8335,-10369.6083,0
7.489645,-12171.4105,5104.0039,917.4254,6118.5415,0
7.489654,-12058.7724,13182.6172,4921.6948,-891.7781,0
7.489696,-10410.0560,12182.1289,377.1043,-15933.9593,0
7.489720,-12240.3889,0.0000,9834.8582,-14161.1395,0
7.489734,-10725.6924,14292.4805,15322.9576,-9655.4189,0
7.489769,-9661.9361,-11817.3828,4485.9879,-11193.4232,0
7.489794,-10117.7415,4000.0000,3900.1190,-7088.4264,0
7.489817,-9456.5185,15565.9180,6808.5515,-9362.6876,0
7.489819,-9244.3079,-10571.7773,6945.2115,-9970.3279,0
7.489838,-9623.2961,-6315.9180,5608.5077,-14167.4916,0
7.489871,-10913.9797,5262.6953,-11459.6422,1552.5199,0
7.489898,1715.3549,-15589.8438,-413.2117,-984.5165,0
7.489908,-1483.0539,9307.6172,4219.9148,6949.5871,0
7.489968,-3103.8689,6000.0000,3010.9383,-6152.9999,0
7.489977,1173.8369,15690.9180,2311.6436,-6094.8789,0
7.489977,1310.2547,-10442.3828,2289.3428,-6093.0254,0
7.490046,-10256.9740,-7072.7539,-1789.7316,1424.7133,0
7.490047,-9810.4472,13933.1055,-1856.1803,1094.6164,0
7.490051,-8408.7673,0.0000,-2064.7677,58.4183,0
7.490061,-4820.2893,15136.2305,-2598.7779,-2594.3800,0
7.490122,-11195.8595,-15312.9883,5237.5757,-4296.0481,0
7.490130,-11200.9997,9953.6133,7118.6134,-8858.5338,0
7.490148,-69.7313,14644.0430,-1414.1023,-9698.5862,0
7.490193,-10342.5853,-13065.9180,12862.0130,11568.5950,0
7.490209,-12543.7157,-8025.8789,9855.0206,9511.9523,0
7.490212,-12784.8915,-12698.2422,9366.7819,8196.4261,0
7.490227,-14228.0870,14065.9180,6445.1615,-8025.8789,0
7.490263,-11533.6248,-10815.9180,4718.2462,-7933.1545,0
7.490288,-12417.8954,-8025.8789,12322.4833,-1506.3449,0
7.490306,-6706.4197,14104.9805,-2923.0789,-7388.9757,0
7.490334,-3930.1919,4934.5703,-6537.3178,13294.8315,0
7.490367,-10427.8681,-8025.8789,-3504.4634,1922.0704,0
7.490369,-8252.6066,-4946.2891,-3808.8958,895.2948,0
7.490389,13603.1907,14112.7930,7060.1818,-8585.6861,0
7.490406,1489.8201,-2190.9180,14555.3805,-11198.1712,0
7.490441,-11840.4950,-8025.8789,8253.0611,1965.5345,0
7.490471,-9728.5562,14065.9180,14107.0228,-3496.9745,0
7.490526,-11738.2770,-7196.2891,3146.9821,242.9635,0
7.490527,-11880.6264,-8025.8789,3426.4202,-338.0327,0
7.490549,-12242.6221,14456.5430,7682.6750,-7002.0229,0
7.490628,-11950.8426,13885.7422,-7266.2889,13997.3425,0
7.490647,-748.4270,-8025.8789,-3841.0667,13863.2368,0
7.490695,-11354.3791,-3321.2891,-2091.4273,2976.3689,0
7.490707,-10263.3049,13909.1797,-1590.5812,7569.5149,0
7.490725,-11082.2892,-14648.9258,-847.7387,14381.9554,0
7.490788,-6950.6443,14065.4297,-10618.8945,8239.5466,0
7.490798,-2919.9983,12969.7266,-7835.6029,12024.7066,0
7.490857,-10146.7651,-2695.8008,-9372.2330,5386.6059,0
7.490867,-10512.2587,13956.5430,-6930.8778,8953.0420,0
7.490871,-10657.0113,-7218.7500,-5963.9863,10365.5185,0
7.490945,-7108.6600,3166.0156,-10783.0337,-7075.8975,0
7.490948,-6669.0055,14644.0430,-10601.6072,-7201.7986,0
7.490993,-7715.1830,-6196.7773,-8270.8688,-5221.3930,0
7.491024,-8588.6918,15417.9688,-9432.9877,-3999.8268,0
7.491087,-10026.4221,-7072.7539,-3503.7789,5748.4690,0
7.491097,-10026.4890,-12546.8750,-1785.6259,3318.3056,0
7.491169,-5986.6399,-6580.5664,-10026.1246,-8025.8789,0
7.491176,-6671.4162,14136.2305,-10026.0829,-8025.8789,0
7.491181,-7292.3166,-5946.7773,-10026.0452,-8025.8789,0
7.491243,-10634.4794,1396.9727,-4522.9492,-6157.0338,0
7.491259,-7129.1610,14112.7930,-6068.3594,-7892.9705,0
7.491273,-8105.0458,-5070.8008,-7289.3937,6545.2460,0
7.491317,-11914.1787,-4737.7930,599.7378,-8736.5394,0
7.491342,-10787.6505,14237.7930,-5156.5182,-2454.5146,0
7.491366,-10150.0908,-3696.7773,-4379.1798,11405.4601,0
7.491403,-11389.9978,-888.6719,6126.0138,-4997.4840,0
7.491442,-7604.6439,14284.6680,-7056.2744,7869.5116,0
7.491459,-9364.6941,-1195.8008,-2110.5033,14632.2557,0
7.491484,-11079.8273,-923.3398,5446.5658,11621.4031,0
7.491534,-11691.2722,14432.6172,-2310.3964,-9741.8377,0
7.491550,-10371.4557,-195.3125,2004.0139,-14631.4607,0
7.491559,-10615.9741,-11134.2773,4322.2642,-8808.8571,0
7.491613,-10052.8285,14597.1680,-833.0004,-9728.4974,0
7.491631,-10966.9951,-1190.4297,-6252.2353,-14414.6962,0
7.491647,-11092.3060,55.1758,-11413.8233,893.0045,0
7.491704,-10793.7452,-1067.8711,-1833.5816,-5135.4945,0
7.491727,-10952.8627,14925.2930,-5821.4375,-6993.5021,0
7.491739,-10594.1867,3179.6875,-7869.0425,7103.6004,0
7.491776,-11956.6933,2955.5664,-182.6384,3716.9745,0
7.491803,-9917.8473,15776.8555,-5527.1531,-2897.2423,0
7.491830,-12009.3986,3305.6641,-3807.8431,-8698.6390,0
7.491847,-11460.5060,865.2344,-379.0429,3215.5904,0
7.491883,-10445.1333,-11245.1172,-8000.1034,-13026.8750,0
7.491918,-10690.9619,-1249.5117,-3740.2290,-13180.5369,0
7.491922,-10853.9600,5805.6641,-3781.2929,-12710.2297,0
7.491959,-10700.7691,-11675.2930,-7228.0429,14174.5315,0
7.491991,-11343.8198,-1229.0039,-7546.5116,14071.9637,0
7.492032,-10704.4343,4305.6641,-5749.0439,13227.0158,0
7.492037,-10453.8826,-13433.5938,-3825.0653,13266.4944,0
7.492063,-11131.3156,752.4414,7418.0519,12863.4564,0
7.492118,-7341.8613,-15886.7188,-9556.4236,13174.9388,0
7.492124,-10133.0148,4930.1758,-10123.8212,13496.9972,0
7.492138,-10460.2648,10884.7656,-11230.6249,13947.8160,0
7.492203,-10365.7760,14940.9180,793.2402,5827.1252,0
7.492218,-11366.5970,6430.1758,6315.2734,10694.3222,0
7.492219,-11471.0305,8928.7109,6891.4856,11202.2036,0
7.492280,-1371.6039,13323.2422,-8387.5601,6895.7726,0
7.492290,6237.0361,-1062.5000,-9661.0586,9548.1048,0
7.492313,-3123.4418,8055.6641,-12370.9450,-9940.0112,0
7.492363,8179.2650,10314.9414,-5553.5837,10789.3523,0
7.492369,5657.5207,-5084.4727,-4244.9385,11816.1627,0
7.492406,-1327.6894,7430.6641,-9256.9504,-1418.5540,0
7.492439,-13280.4612,13017.0898,-7449.6722,2856.0752,0
7.492441,-13188.2676,8157.7148,-7320.7437,2420.8349,0
7.492503,-8638.7264,-13164.5508,-3391.1005,7315.4933,0
7.492503,-9452.9751,9056.1523,-3443.2209,7225.1254,0
7.492511,-11670.1837,-13068.8477,-4334.6162,5679.5970,0
7.492526,-10952.4063,6938.9648,-6070.0660,2862.5603,0
7.492580,-6617.2441,-9038.5742,1051.9641,9547.9521,0
7.492596,-9470.8445,6180.6641,1969.0248,6087.5261,0
7.492609,-165.4687,3445.8008,189.8070,-4554.2947,0
7.492650,3936.2453,-1221.6797,-2901.3315,-10186.7627,0
7.492672,-10502.0444,4835.9375,-6648.3476,-6943.8869,0
7.492686,457.8405,0.0000,-8675.9534,-10233.5687,0
7.492689,2656.0873,-1194.8242,-8034.0770,-10893.3870,0
7.492720,2514.3359,-7363.7695,-1206.0749,5279.3002,0
7.492767,-10264.7217,195.3125,9943.7682,227.8319,0
7.492785,-8164.8402,-6071.7773,5624.6774,5164.1339,0
7.492789,-7877.9200,6681.1523,4570.0353,6369.4876,0
7.492848,-6080.5190,-625.4883,7944.1808,-2573.7193,0
7.492850,-3856.5979,-11170.4102,7633.5800,-2372.6863,0
7.492861,6302.8683,10715.3320,5192.6580,-792.8258,0
7.492880,3541.1656,-12198.7305,1198.3057,-6779.2935,0
7.492923,-3627.4918,437.5000,-8205.1546,-1837.2624,0
7.492931,-4443.5460,-15093.2617,-9270.9961,-1041.6665,0
7.492966,9294.7622,-11200.1953,3100.0847,-4809.8705,0
7.492998,-4282.5225,-437.9883,8096.5898,3750.8755,0
7.493001,-3630.3550,-1134.2773,8444.2884,3303.7513,0
7.493013,101.4922,8849.6094,8520.4395,745.2071,0
7.493071,-5586.1225,10846.6797,5245.0146,-9820.7131,0
7.493076,-3658.7816,-344.2383,6022.1800,-9506.8262,0
7.493079,-2669.5660,-8447.2656,6421.0632,-9345.7225,0
7.493141,3255.6819,-7125.4883,-5947.8780,6419.0773,0
7.493154,2648.2163,-398.9258,-6806.9512,11529.5625,0
7.493159,2390.1269,-9197.2656,-7171.9394,12513.2059,0
7.493172,1786.6634,-13156.7383,-8025.3528,398.8387,0
7.493231,306.3793,0.0000,2801.3571,11635.0009,0
7.493239,-1766.8675,-6196.7773,6626.2148,12676.6296,0
7.493251,-4916.0949,4897.9492,12575.9808,14412.6764,0
7.493305,-10018.0631,0.0000,-7574.9094,908.0165,0
7.493319,-7662.3620,-4321.2891,-5183.2430,-69.1031,0
7.493321,-7294.9591,-5141.1133,-4810.2308,-221.4979,0
7.493331,-5602.1393,6833.0078,-3091.5662,5636.8626,0
7.493379,4765.3369,-805.1758,-381.6804,4534.6818,0
7.493391,3656.1754,890.6250,-602.6060,1355.6070,0
7.493401,2687.1185,-6570.8008,-795.6252,-4730.2982,0
7.493453,3856.7854,-406.7383,-7438.6346,4608.7223,0
7.493460,2666.9922,-13111.3281,-4401.1442,2673.0185,0
7.493482,6359.8120,9055.6641,4677.3609,-12308.8828,0
7.493495,10054.2455,12847.1680,10114.0255,1659.1179,0
7.493532,-173.1897,2904.7852,6265.7261,8932.1222,0
7.493551,7122.5073,15690.4297,3480.0973,-727.9034,0
7.493561,7277.9946,15557.6172,2074.9518,-568.7261,0
7.493602,1361.3774,2940.4297,-5931.1414,12674.4046,0
7.493626,-6954.2606,0.0000,956.2064,10142.5889,0
7.493640,-10221.2176,932.1289,4952.7630,2395.1883,0
7.493675,-4504.5629,-1055.1758,-4949.0482,-11037.1843,0
7.493700,7443.1367,5050.2930,5625.3481,-6236.4999,0
7.493723,-4069.6112,-938.4766,4223.8616,347.6177,0
7.493725,-5238.9937,12876.4648,3292.7562,690.5068,0
7.493744,-2843.4185,-11073.7305,-3842.3490,4634.0386,0
7.493777,6494.3742,-12026.8555,261.9741,-3259.5933,0
7.493804,-10227.8990,7313.4766,4630.8796,-2949.5837,0
7.493814,-7554.6622,10934.5703,5996.1982,-5814.8246,0
7.493874,9862.6762,0.0000,12986.1453,1369.0711,0
7.493883,10212.8885,-65.4297,9944.4446,557.1530,0
7.493884,10224.0569,14935.0586,9847.4435,531.2606,0
7.493952,-9629.8418,-13159.1797,-3148.2950,-4989.9931,0
7.493953,-9441.1841,10954.1016,-2968.0791,-5189.0416,0
7.493957,-8848.9740,0.0000,-2402.3681,-5813.8693,0
7.493967,-7332.8411,8182.1289,-954.0764,-7413.5073,0
7.494028,-2086.3952,14937.9883,5465.5151,-804.8979,0
7.494036,-3336.0404,-320.8008,3361.8355,1862.6022,0
7.494055,-5725.8808,9181.1523,5865.1444,1045.7664,0
7.494099,-1477.1628,2944.3359,-12515.6755,6250.8341,0
7.494115,-7659.8138,-406.7383,-12722.8238,3346.1989,0
7.494118,-6286.0949,8831.5430,-12756.4581,2844.9395,0
7.494134,1934.2392,2930.6641,-12957.7252,-406.7383,0
7.494169,2640.1264,-1050.2930,-8588.1555,5769.4902,0
7.494194,-9758.6856,-406.7383,-7600.6664,9499.3283,0
7.494213,-9050.5536,2929.6875,-6696.4521,560.3310,0
7.494240,12233.7713,5029.2969,-590.8666,6480.8643,0
7.494274,-6089.3608,-406.7383,2579.8499,1299.4207,0
7.494275,-6495.7894,-9146.9727,2793.1025,1123.3198,0
7.494295,-10465.6084,1430.6641,1086.7856,-1137.7779,0
7.494312,-5313.0708,-7029.2969,-385.1572,-4549.3633,0
7.494347,-6997.0573,-406.7383,6714.4369,248.6445,0
7.494377,-2116.2721,54.6875,11204.4311,-786.2527,0
7.494432,12798.7572,-9142.0898,-4491.5570,-1099.6531,0
7.494434,13897.4754,-406.7383,-4890.3875,-1050.9666,0
7.494455,9238.9326,1179.1992,-10965.1634,-2478.9863,0
7.494534,-434.0389,-2320.3125,-2379.2953,963.5534,0
7.494553,-3324.6697,-406.7383,-1257.7304,-828.4609,0
7.494601,-7279.6206,-1143.0664,-6813.9922,4556.2271,0
7.494613,-1596.1649,-1196.2891,-5182.2065,6628.1332,0
7.494631,-5680.4590,-11549.8047,-2761.9823,9701.1331,0
7.494694,-880.9212,-1320.3125,10886.2578,-7228.9378,0
7.494705,-1492.0862,14456.0547,8197.0894,-8816.5457,0
7.494763,-696.9948,4867.6758,-5230.4973,-7351.7124,0
7.494774,-1554.4142,1306.6406,-4966.5788,-9198.4102,0
7.494778,-1893.9926,12002.9297,-4862.0546,-9929.7895,0
7.494851,2040.3348,-12776.8555,5423.4503,1778.2624,0
7.494854,2410.2490,10056.1523,5039.8118,1488.6840,0
7.494900,1530.0216,10853.0273,-1455.4515,2424.9432,0
7.494930,-3059.8109,-9111.8164,-6430.0631,3658.3552,0
7.494993,-414.5508,-13151.3672,-4634.2923,4077.8352,0
7.495003,-414.5508,-8682.1289,-6240.5338,5352.9007,0
7.495076,-12287.3692,-9674.8047,-410.6689,-406.7383,0
7.495082,-10941.2447,2804.6875,-410.0027,-406.7383,0
7.495088,-9720.6866,-15146.9727,-409.3987,-406.7383,0
7.495149,-2828.8995,-9314.9414,-9551.7782,-3797.8887,0
7.495166,9039.0781,5557.1289,-5517.2017,-647.9100,0
7.495179,5854.7506,887.6953,-2329.4680,-8246.6436,0
7.495224,-523.2539,-11323.2422,598.5740,4835.4255,0
7.495248,-9927.3956,10684.5703,-261.3238,-1156.2928,0
7.495273,-2392.7152,14854.9805,-1767.1385,-476.5276,0
7.495310,-1588.5938,-13151.8555,-6067.1355,13201.4044,0
7.495348,-2165.5377,14307.6172,-836.0067,3646.0730,0
7.495365,-892.9625,6866.6992,2096.7417,-2936.4107,0
7.495390,-1163.5718,-14675.7812,6389.2918,-2781.5162,0
7.495440,1698.9371,-2569.3359,-3513.9833,-1570.1273,0
7.495456,1141.3371,12882.3242,-7122.1097,-2358.2055,0
7.495465,2243.7883,13088.8672,-9060.8543,-2688.9630,0
7.495520,-719.2038,-14317.8711,-6995.4723,-6697.1726,0
7.495537,-6795.6500,12620.1172,344.8414,-9923.1880,0
7.495554,2909.8937,12881.3477,7336.1742,-549.4878,0
7.495610,-2987.9771,15073.2422,-92.9229,4984.5352,0
7.495633,-3521.1441,-12687.5000,-295.0208,10718.7200,0
7.495645,-2317.8486,12876.9531,-398.7901,4056.2250,0
7.495682,-2545.7457,15565.9180,-2863.4538,2634.5364,0
7.495709,2121.2445,-6188.9648,-280.1070,7071.1119,0
7.495736,-296.5479,2877.4414,-3781.1128,-6019.5877,0
7.495753,3659.4391,13893.5547,-6059.2253,-956.2656,0
7.495789,-2276.2583,8581.0547,-338.8951,12958.8613,0
7.495824,4816.3051,12206.0547,9773.8318,-480.4415,0
7.495829,6099.2223,-3105.4688,9675.9254,-3660.0786,0
7.495865,4897.7768,-2425.2930,71.1580,7107.4360,0
7.495898,1771.6015,12760.2539,10116.9201,-997.6541,0
7.495938,417.3446,-13094.2383,1283.3956,-13184.3347,0
7.495943,109.9521,-3430.6641,2711.5979,-12780.3350,0
7.495969,3613.9105,12502.9297,11057.5574,-7662.2949,0
7.496024,587.2805,4186.0352,-4490.7901,-6980.9774,0
7.496031,-222.9836,-1094.7266,-6007.7103,-6560.3421,0
7.496044,364.8432,14870.6055,-8966.7161,-3223.2879,0
7.496110,-581.8860,-14570.3125,3836.3159,6518.9507,0
7.496124,-1075.3103,-7107.9102,6493.0763,10566.2330,0
7.496125,-1126.7981,15058.1055,6770.3034,10988.5581,0
7.496186,-4492.2598,-13071.7773,-7968.1394,3570.8165,0
7.496197,-9025.7757,15292.4805,-7928.8136,455.4326,0
7.496219,-10670.6140,-15125.4883,-7845.1320,-655.5993,0
7.496270,5142.5811,12165.5273,-6070.0779,9627.9036,0
7.496275,7581.4415,14964.3555,-3371.2885,8941.0596,0
7.496312,3985.7851,2895.9961,-13061.1847,-7321.6252,0
7.496345,-3398.5136,15479.9805,-13693.0632,-5755.8795,0
7.496347,-4272.8009,-6847.6562,-13738.1404,-5439.6218,0
7.496409,-4680.0505,13612.3047,-6187.5156,-6930.7068,0
7.496409,-4709.6602,-13072.2656,-6172.9139,-6896.0001,0
7.496417,-2885.0635,15144.0430,-5923.1861,-6302.4238,0
7.496432,1669.5097,-15100.0977,-5436.9932,-5168.9709,0
7.496487,-2515.8292,14862.7930,2010.4704,-5047.0611,0
7.496502,1212.8475,844.7266,6254.8127,-6844.5427,0
7.496515,-2776.9855,5005.8594,-6507.4765,-7082.3328,0
7.496556,8765.9169,10673.8281,-13918.6554,2003.2924,0
7.496578,-7154.6130,13573.2422,-14643.4818,-1520.7720,0
7.496593,3040.9124,0.0000,-15021.8512,-5512.9119,0
7.496595,5085.8500,-1149.9023,-14860.9458,-6313.6236,0
7.496626,6568.6664,9783.2031,-13149.3044,11039.5963,0
7.496673,-252.1152,0.0000,10608.5347,-5294.7504,0
7.496691,5445.1071,10853.0273,6000.7016,-8218.1269,0
7.496696,2589.8614,10463.3789,4875.5540,-8931.9614,0
7.496754,-6402.8554,15998.5352,-4398.1238,-130.4318,0
7.496756,-4425.3957,13737.3047,-4226.1664,-120.2438,0
7.496767,4700.5718,12690.4297,-2874.8027,-40.1791,0
7.496786,2640.9410,-5165.5273,-663.4160,1411.6769,0
7.496829,-3113.9058,50.7812,-8448.6585,1371.6098,0
7.496837,3402.7491,14276.3672,11932.6172,777.6570,0
7.496872,-4480.5345,-1171.3867,-15038.0551,4603.4350,0
7.496905,-10092.9253,-6001.9531,-5570.6793,10486.7609,0
7.496907,-10094.6863,13979.4922,-4911.8603,9236.6834,0
7.496920,-10104.7630,13713.8672,-3542.1363,2083.4624,0
7.496978,2138.4672,13260.7422,11646.9226,2305.8905,0
7.496982,998.4093,-8129.8828,11724.2570,-1331.6170,0
7.496985,413.2700,2830.5664,11763.9492,-3198.5824,0
7.497047,-8599.3195,14041.9922,5941.3970,-9406.6848,0
7.497060,-6994.8045,-6376.4648,1122.8578,-10076.3744,0
7.497065,-6313.1058,12822.2656,-924.3600,-9668.3177,0
7.497078,-4719.1618,13541.9922,-5711.1535,-308.1624,0
7.497137,-5164.0749,0.0000,-3329.5203,4086.7820,0
7.497145,-7816.3146,10845.7031,2432.8512,22.9423,0
7.497157,-7548.4337,13987.7930,11299.9108,-4623.2848,0
7.497212,-4460.1056,0.0000,-14467.0605,-6783.1980,0
7.497225,-4992.0569,2869.1406,-14665.6008,-6574.1781,0
7.497227,-5075.0218,14104.9805,-14696.5659,-6541.5787,0
7.497237,-5457.2849,13393.5547,-14839.2381,1005.4071,0
7.497285,-2796.0423,-4876.9531,108.3855,13949.7580,0
7.497297,-3641.8398,14143.5547,4760.7117,711.6800,0
7.497308,-4380.7998,4865.7227,8825.3756,-8437.8370,0
7.497359,-9936.9732,-6501.9531,5213.2295,-750.3674,0
7.497367,-12397.9917,14237.7930,1776.7432,-2970.1768,0
7.497389,-10321.0190,884.2773,-8494.2879,-10495.5718,0
7.497402,-8770.3062,13807.6172,-14645.0970,4054.3676,0
7.497439,-6564.2904,14386.2305,-4157.9331,15087.6697,0
7.497457,-5191.1638,13407.2266,-10326.4937,-12861.7483,0
7.497467,-5637.4739,4914.5508,-13438.0801,-9709.6788,0
7.497509,-6657.9442,15026.8555,-8383.4423,-13805.4146,0
7.497532,6808.6202,0.0000,-12697.7612,-11483.1797,0
7.497546,964.5767,-7017.0898,-15201.2531,-7824.9789,0
7.497581,-6604.1405,15261.2305,-2737.2798,-4384.5508,0
7.497606,9796.3967,10079.1016,-13312.6586,-10759.8041,0
7.497629,-3447.2696,-8997.5586,-4084.9722,-3813.7490,0
7.497631,-5011.7764,13713.8672,-2496.8360,-2591.8380,0
7.497650,-6620.6490,14769.0430,3642.3602,7384.2726,0
7.497684,2252.0922,-15934.0820,-14685.6578,6426.5628,0
7.497711,-6422.7161,5008.7891,-11236.1566,-17.9409,0
7.497720,-6478.3520,15292.4805,-9654.7787,7288.1488,0
7.497781,-8016.8780,0.0000,10980.1903,-8690.5173,0
7.497790,-8780.4589,-1042.4805,8408.3376,-7689.8836,0
7.497790,-8804.8098,14839.3555,8326.3202,-7657.9730,0
7.497858,-4988.8607,13831.0547,-6014.7375,-14148.0470,0
7.497860,-5047.2402,15065.9180,-6301.2643,-14175.3348,0
7.497863,-5230.4978,0.0000,-7200.6929,-14260.9934,0
7.497873,-5699.6604,-11052.2461,-9503.3437,-14480.2902,0
7.497935,1762.1500,13972.1680,10700.1666,-12954.0970,0
7.497943,6688.7283,-6376.9531,8992.2149,-13856.0639,0
7.497961,-1119.9757,4888.1836,-7766.3219,-8746.6150,0
7.498005,-4255.7384,15292.4805,-1290.9980,-12791.6477,0
7.498022,10504.8783,-6501.9531,-7774.3095,-15225.5279,0
7.498024,9173.9356,13518.5547,-8826.9905,-14879.3970,0
7.498040,1209.5744,2878.4180,-15126.2332,-6501.9531,0
7.498076,-6995.4161,15581.5430,-12640.1649,14177.3147,0
7.498100,-12738.9182,-6501.9531,9850.6582,7649.4138,0
7.498119,-12086.2404,14867.1875,6998.7061,-5120.4409,0
7.498146,-9148.8746,-15762.2070,-9908.5832,4741.1064,0
7.498180,5768.3674,-6501.9531,13342.3807,4094.7082,0
7.498182,4337.3443,13479.4922,14501.4321,3000.9759,0
7.498202,-10280.7519,2894.0430,-351.1661,-2980.3735,0
7.498219,-8407.6818,15542.4805,-11869.9665,13453.9886,0
7.498253,-3935.0436,-6501.9531,8398.5001,1296.9707,0
7.498283,-6875.2069,2871.5820,8589.8618,-241.3273,0
7.498339,-6769.3072,13776.3672,-3287.5187,-926.2868,0
7.498340,-6781.1443,-6501.9531,-3579.4359,-1318.0515,0
7.498362,-6295.8135,874.5117,-8025.7648,-3348.3905,0
7.498441,-6641.5630,6881.8359,9730.0887,9390.1554,0
7.498459,-8808.6097,-6501.9531,5143.4674,10791.4392,0
7.498507,-7692.7295,13534.1797,-22.0699,-9650.0398,0
7.498519,-5648.7810,-13133.3008,-16.7847,-10964.2824,0
7.498538,-2267.6919,7077.6367,-8.9458,-12913.5343,0
7.498600,-7280.5352,-13114.7461,10126.9092,5525.6532,0
7.498611,-8137.0356,-4446.2891,8004.9764,8324.6218,0
7.498669,-5866.7144,13846.6797,6194.2771,-6810.4079,0
7.498680,-3558.8469,-1091.3086,5329.7811,-6892.4274,0
7.498684,-2644.8228,7301.2695,4987.4000,-6924.9109,0
7.498757,-8178.8278,13449.2188,9413.1517,49.4390,0
7.498760,-8412.6720,-7106.4453,8365.9049,-818.8178,0
7.498806,-7856.2294,13565.4297,-4169.4672,5138.5489,0
7.498837,-7899.4954,-1157.7148,6894.7694,10178.1589,0
7.498899,-6626.9531,13854.4922,-1299.4399,7033.3410,0
7.498909,-6626.9531,-14408.6914,677.2333,10915.0602,0
7.498982,-9542.6836,-2661.6211,-6501.9531,-6533.6666,0
7.498988,-9212.1019,-5101.5625,-6501.9531,-6522.9769,0
7.498994,-8912.3569,13721.6797,-6501.9531,-6513.2843,0
7.499055,-5308.0381,960.9375,5503.7435,692.5378,0
7.499072,-9354.5190,2904.2969,207.1126,-5990.2956,0
7.499085,-8435.7752,14174.8047,-3977.7750,-11865.4881,0
7.499130,-11709.4298,5824.7070,-1548.3788,3580.0500,0
7.499154,-10771.1314,10903.3203,-4177.4166,-3784.5282,0
7.499179,-7396.0561,13831.5430,-7949.8322,6683.3389,0
7.499216,-11691.3451,8570.3125,-6633.1595,6209.2646,0
7.499255,-9748.6910,2909.1797,-5913.9679,-2641.8051,0
7.499271,-7479.8870,13917.4805,-1246.7404,2245.7453,0
7.499296,-1212.6085,-3059.5703,6361.4419,13401.1659,0
7.499346,-8173.9521,-5079.1016,-5696.9256,7927.6941,0
7.499363,-7658.4227,14042.4805,-4762.1294,11906.7621,0
7.499371,-8389.2882,-6195.8008,-4259.8379,13434.6382,0
7.499426,-6745.1295,4898.9258,5353.8818,3313.5848,0
7.499443,-10622.8881,10799.8047,10201.9150,4909.7323,0
7.499460,-10668.9897,14050.2930,14819.4580,-8994.4440,0
7.499516,-9120.1172,-569.8242,-1485.4275,2862.0887,0
7.499540,-9636.6554,15006.8359,-4716.0833,-3244.9144,0
7.499552,-8470.8892,13956.0547,-6374.8963,-3076.5014,0
7.499588,-2625.3971,-11316.4062,-3603.8737,5552.9015,0
7.499616,-8843.3706,15034.6680,-4477.6766,-6882.3266,0
7.499643,-6689.5831,14222.1680,-6238.3935,-2957.4106,0
7.499660,-4728.4934,-9074.2188,-5615.5677,9623.5828,0
7.499695,-7215.6657,-8725.5859,-6455.7049,13780.9224,0
7.499730,-3083.6806,-13575.1953,1335.2483,14615.7184,0
7.499735,-2214.6593,14347.1680,1260.2027,14499.3608,0
7.499771,-3031.3936,15251.9531,-4821.7723,11817.4711,0
7.499795,-7789.9037,15026.8555,8950.6911,3615.3852,0
7.499804,-8980.7640,-1702.1484,1185.7924,-2084.0730,0
7.499844,835.2484,14409.6680,-6364.4442,379.5013,0
7.499849,-1922.0994,-4914.0625,-6248.2460,3116.5120,0
7.499876,856.4621,14050.2930,-5569.2207,-11546.7308,0
7.499930,-7253.0261,-3019.5312,-827.4849,-4118.8533,0
7.499937,-5167.1806,14440.9180,1276.1323,-4527.8277,0
7.499950,-687.8460,7928.7109,5379.5881,-2756.3521,0
7.500016,-6800.4024,-1118.1641,-8214.5277,-999.4321,0
7.500030,-7311.8555,14440.9180,-9286.8449,375.1577,0
7.500032,-7365.2245,6933.5938,-9398.7389,518.5931,0
7.500092,-9491.6938,8872.0703,518.9211,2908.8459,0
7.500103,-12273.9737,-2940.4297,1144.0915,76.5089,0
7.500126,-10859.4012,14229.9805,2474.3961,-3649.3254,0
7.500176,-12617.1088,10567.8711,-1585.8126,13409.5196,0
7.500182,-12733.7603,15308.1055,-3212.8051,13262.5444,0
7.500218,-10554.7866,14558.1055,3402.4909,10213.5898,0
7.500251,-3522.4790,13808.1055,642.2616,8706.0841,0
7.500254,-3023.9582,14410.6445,445.3511,7364.5373,0
7.500315,-6339.5404,-4947.2656,-12108.1206,7048.1570,0
7.500316,-6941.3359,14081.0547,-12109.8521,7198.1754,0
7.500323,-9038.4739,-1189.9414,-12139.4648,9763.8824,0
7.500339,-9597.6356,-7613.7695,-12197.1175,14371.0100,0
7.500393,-5378.4462,-14314.4531,-9582.2725,-2660.1341,0
7.500408,3782.3367,14151.8555,-6661.4427,-4737.9842,0
7.500421,5253.0190,-1909.6680,4834.3959,5206.7921,0
7.500463,-13973.4501,-2211.4258,-13063.1138,-542.4716,0
7.500484,-7244.9055,-6572.2656,-5436.1607,-6752.8123,0
7.500499,-2424.8771,0.0000,-519.6444,-7651.7660,0
7.500502,-1458.1141,13213.8672,267.4315,-7832.0710,0
7.500532,4596.8978,-6086.4258,8640.0024,-1463.3621,0
7.500580,-5916.0209,-12000.0000,-5712.3456,-2799.3513,0
7.500598,4472.3737,13463.8672,-3231.1796,-584.9339,0
7.500602,5202.2697,5291.5039,-2625.3248,-44.2141,0
7.500661,-4175.4519,13939.4531,-5118.8177,-2085.0305,0
7.500662,-5621.0913,-3822.7539,-4918.6827,-1922.1689,0
7.500674,-11471.2381,9798.3398,-3345.8792,-642.2868,0
7.500692,-6444.9314,13268.5547,-772.1260,-6236.9797,0
7.500735,-3880.6350,-14106.4453,1046.1990,6400.3762,0
7.500743,-6858.2330,-3695.3125,2796.8750,3628.8001,0
7.500779,923.9408,13534.1797,11837.1896,12079.8805,0
7.500811,1496.2547,-12028.8086,3794.3851,9369.4126,0
7.500813,1983.6986,-6822.7539,3234.6996,8252.5290,0
7.500826,4772.9612,-4321.7773,-461.7033,1861.4727,0
7.500884,-10696.0576,-3573.2422,-2717.9199,3268.2313,0
7.500889,-10175.3531,-10041.0156,-3159.7813,5486.1141,0
7.500891,-9908.0994,13260.7422,-3386.5684,6624.4514,0
7.500953,-12188.5009,-4197.2656,1245.5210,10758.2801,0
7.500966,-9914.2939,15945.8008,933.3698,10172.8915,0
7.500972,-8948.0681,13174.8047,800.7483,9339.7093,0
7.500984,-6688.8441,-4695.8008,490.6536,297.6885,0
7.501043,-11833.5016,0.0000,-4864.3320,5058.8541,0
7.501051,-10059.1050,13401.3672,-3841.3914,1101.6761,0
7.501063,-5472.5742,6431.1523,-2096.4320,-1344.6597,0
7.501118,-9287.6152,0.0000,-10159.0955,-4485.9042,0
7.501131,-9468.9755,14237.3047,-10863.1090,-7116.7969,0
7.501134,-9497.2610,429.6875,-10972.9093,-7527.1196,0
7.501143,-9627.5875,-2196.2891,-11478.8172,2482.7025,0
7.501192,-11640.3776,-8025.8789,235.3082,-7832.8617,0
7.501204,-11722.9045,-11821.7773,-505.1047,-7957.0398,0
7.501214,-11795.0069,13815.4297,-1151.9917,-7334.3418,0
7.501266,3834.4547,-8025.3906,9928.9469,-164.0190,0
7.501273,-7579.2820,2553.2227,10548.4592,-3198.2831,0
7.501295,-6295.9047,14393.5547,12400.0683,-5865.2456,0
7.501308,-2884.0963,-8073.7305,13508.9048,8271.5910,0
7.501345,-10094.1785,13059.5703,-4159.1016,-9836.8750,0
7.501364,-9901.7190,-7829.1016,-7344.9154,-10493.1347,0
7.501373,-7850.8987,14464.3555,-8951.9249,-9270.3026,0
7.501415,-8407.6464,7680.6641,-457.8464,-5312.4012,0
7.501439,-8290.3502,0.0000,-1074.5107,396.2193,0
7.501452,-410.2988,15073.7305,-1432.3457,-5788.9494,0
7.501487,-4260.2001,9683.1055,3883.6171,-11977.2601,0
7.501513,-8435.9905,9489.2578,1129.7585,-9257.1750,0
7.501535,-11602.2305,-15464.8438,7699.6391,-3868.6523,0
7.501537,-11688.8174,-3821.2891,8507.4323,-1979.0039,0
7.501556,-10732.8251,14807.6172,9975.1122,14135.1866,0
7.501590,-11170.9202,-11077.1484,463.3615,2467.8394,0
7.501617,-11355.9022,-15761.7188,-8017.0437,-949.0823,0
7.501627,-10993.7259,-13193.8477,-11254.4794,7024.9480,0
7.501687,12532.8784,0.0000,6743.0125,-991.9519,0
7.501696,11874.4596,15729.9805,5163.6196,-4207.9347,0
7.501696,11853.4623,13809.0820,5113.2521,-4310.4937,0
7.501765,-11025.9021,-2321.2891,-129.9891,797.1944,0
7.501766,-10743.5158,15308.1055,-3.7205,441.5253,0
7.501770,-9857.0848,0.0000,392.6459,-674.9458,0
7.501779,-7587.7092,14784.6680,1407.3940,-3533.2532,0
7.501841,-11295.2649,10433.5938,7870.2494,-5093.1841,0
7.501849,-12033.6198,-8025.8789,12343.7444,-9804.1727,0
7.501867,-10752.0774,14440.9180,8120.6071,-9997.5624,0
7.501912,-10300.0860,14057.1289,9761.0940,5938.7954,0
7.501928,-11895.5418,-8025.8789,8695.4788,233.2885,0
7.501930,-11546.8365,-7072.7539,8522.4572,-808.6067,0
7.501946,-9460.1844,14143.5547,7487.0961,-8025.8789,0
7.501982,-9258.6629,-13068.3594,1516.6823,-9478.2698,0
7.502006,-12511.3669,-8025.8789,-12981.7127,-7784.4192,0
7.502025,-10879.8282,13784.1797,-7311.7129,-8002.3067,0
7.502052,-1229.4192,-10814.4531,-3930.7641,6497.8049,0
7.502086,-12379.2444,-8025.8789,11146.3569,-10561.3777,0
7.502088,-12227.2260,-5071.7773,12114.6399,-10299.6767,0
7.502108,-10653.8404,14159.1797,-1176.7726,-8032.1350,0
7.502125,-10332.1748,13686.0352,-11366.3678,-8061.3308,0
7.502160,-11873.3733,-8025.8789,-8113.0760,2109.1321,0
7.502190,-5230.7803,14026.8555,-10811.9024,-9611.5607,0
7.502245,-12115.7187,-7572.2656,-266.3317,138.4959,0
7.502246,-12289.4533,-8025.8789,-289.9808,-435.1600,0
7.502268,-12637.5257,13956.0547,-650.1911,-7463.4235,0
7.502347,-9967.1239,14144.0430,-11293.2389,13915.2414,0
7.502365,-1179.6870,-8028.3203,-5969.7715,13843.5424,0
7.502413,-11445.4265,-5446.2891,-8544.6764,3070.1247,0
7.502426,-10269.1302,13971.6797,-6498.4338,7702.4114,0
7.502444,-11108.2500,13167.9688,-3463.4975,14572.9041,0
7.502507,-7030.4632,14097.1680,-8730.4023,8121.2037,0
7.502517,-3104.4176,-5212.8906,-6364.2855,11878.8239,0
7.502575,-10158.7650,-2447.2656,5997.8408,5328.5963,0
7.502586,-10560.6870,14222.1680,5195.5284,8879.6074,0
7.502590,-10719.8670,-15209.9609,4877.7749,10285.9749,0
7.502664,-7640.6246,5196.7773,-11286.1584,-7001.9667,0
7.502667,-7281.1291,14065.9180,-11071.6253,-7137.6659,0
7.502712,-8136.5646,-5696.2891,-5878.5081,-6994.7538,0
7.502743,-9871.0951,3460.9375,4307.6277,-6545.7406,0
7.502806,-10251.2760,-4447.2656,-3273.5774,-8704.1167,0
7.502816,-10525.5066,3403.8086,-1467.9603,-6949.7890,0
7.502888,-2317.2477,5461.9141,-8025.8789,-8025.8789,0
7.502894,-3191.2975,14519.0430,-8025.8789,-8025.8789,0
7.502900,-3983.8160,-6321.7773,-8025.8789,-8025.8789,0
7.502961,-9597.2016,-8614.7461,-4362.1216,-6637.8441,0
7.502978,-4822.7576,14534.6680,-5978.4851,-7927.1647,0
7.502992,-6575.5234,-821.2891,-7255.5799,5905.0792,0
7.503036,-12609.8790,-6747.0703,613.3929,-5027.7449,0
7.503061,-8994.0528,13940.9180,-5156.5182,600.9446,0
7.503085,-9763.9374,1179.1992,-4059.4340,11208.5547,0
7.503122,-11165.7184,-4872.0703,4632.7181,-6936.6894,0
7.503161,-8286.7873,14472.1680,-7455.5615,-8475.4297,0
7.503177,-9551.0721,554.1992,-2116.5376,-14707.5419,0
7.503202,-10896.9515,-12999.0234,4483.9295,12869.9397,0
7.503253,-10216.4569,14604.9805,-1504.8656,-9536.0516,0
7.503269,-11129.3400,1429.6875,3744.9254,-14322.3864,0
7.503278,-11910.8705,-11143.5547,6565.7811,-15343.8289,0
7.503332,-9855.9356,14776.8555,460.5639,10231.6845,0
7.503350,-5531.3744,12816.4062,-932.5730,15160.2675,0
7.503366,-8642.2533,3430.6641,-2259.4759,3130.1636,0
7.503423,5355.1486,951.1719,-1833.5816,-1615.9573,0
7.503446,8006.1365,14800.2930,-5821.4375,-5715.4823,0
7.503458,246.8260,-2446.2891,-7869.0425,-11777.6316,0
7.503495,-11909.4073,-13049.3164,-182.6384,5316.7782,0
7.503522,-5412.1720,-15027.3438,-5527.1531,-5543.1150,0
7.503549,-10046.8884,8930.1758,-3807.8431,-9784.4287,0
7.503566,-10692.1330,-13174.3164,-379.0429,-738.5576,0
7.503602,-12591.7161,-11518.5547,-7999.7199,-15006.1791,0
7.503637,-10200.3448,-11230.4688,-3592.9850,-5881.5612,0
7.503641,-10243.0145,6056.1523,-3635.4324,-3522.3367,0
7.503677,-10202.9122,-11753.4180,-6005.5772,14638.5702,0
7.503701,-2669.1969,-9189.9414,9447.3055,13668.2644,0
7.503710,4864.5388,14761.2305,-5786.0077,11482.3150,0
7.503751,-10799.1762,5181.1523,-5948.5585,8389.0647,0
7.503755,-10513.6166,-14699.2188,-4193.1744,8638.4437,0
7.503782,-10989.1957,-15195.8008,6064.7304,14507.6672,0
7.503836,-7618.7024,-15621.0938,-7854.7078,13893.7565,0
7.503843,-10162.2907,4305.1758,-7791.2519,13625.7353,0
7.503856,-10579.3740,6862.3047,-7667.4706,12189.2284,0
7.503922,-10365.1646,14526.8555,-10900.9440,8014.5902,0
7.503936,-11364.1827,10056.6406,-12701.4528,11537.1271,0
7.503938,-11468.4281,-2993.6523,-12889.3319,11904.6962,0
7.503998,-10647.7483,13440.4297,-8002.5337,3865.3972,0
7.504009,-11471.9687,2939.4531,-9015.9936,8756.7895,0
7.504032,-12573.9274,3180.6641,-11172.5421,6879.7409,0
7.504082,9842.6064,8986.3281,-6996.6735,7780.8747,0
7.504088,11157.8519,2934.5703,-7679.3330,9387.5805,0
7.504124,-1463.3036,6930.1758,-6598.9809,2525.1964,0
7.504158,-6835.1687,8920.4102,426.6615,7375.8773,0
7.504160,-5737.9182,6047.8516,927.8600,7660.7926,0
7.504221,-10784.3173,4837.4023,932.1575,14292.8584,0
7.504222,-11375.9863,-569.3359,960.5142,14288.2071,0
7.504230,-13434.3021,14973.6328,1445.4886,14208.6574,0
7.504245,-13975.6562,6126.4648,2389.6810,13960.3176,0
7.504299,-6112.0201,-11113.2812,-5540.6993,-9584.6274,0
7.504314,-9161.6955,5428.7109,-8153.7924,-6973.2797,0
7.504328,20.3031,1187.5000,-379.1850,-2628.2371,0
7.504369,-4097.0260,-9383.3008,-12092.9998,-11240.4718,0
7.504391,-10318.2671,-13154.2969,-8967.7285,-8575.8672,0
7.504405,1466.5597,0.0000,-6892.1918,-10546.7501,0
7.504408,3830.2668,-2071.2891,-6408.1223,-10942.0541,0
7.504438,4860.7830,-11340.3320,-1258.8017,8111.3688,0
7.504486,6.2687,3235.3516,3789.2442,-3460.6050,0
7.504504,1263.8020,-6445.8008,2143.3802,-730.2488,0
7.504508,-1353.6051,2652.3438,1741.4907,-63.5463,0
7.504567,-4430.1844,-6012.6953,6797.2847,-2573.7193,0
7.504568,-5667.0513,-1144.0430,6531.5251,-2372.6863,0
7.504580,-10592.7880,8874.5117,4442.9973,-792.8258,0
7.504599,-5951.3883,-11448.2422,1025.3071,-8140.1012,0
7.504642,-739.4292,-430.1758,-1304.1448,7415.2360,0
7.504650,-2580.7351,-7071.7773,6739.2578,4204.1917,0
7.504685,-3323.1858,-13823.2422,8821.7195,-9597.5023,0
7.504717,-2128.3868,-414.5508,-9052.6579,-6156.3020,0
7.504719,-2648.0362,6846.6797,-10296.5063,-5422.4382,0
7.504732,-5621.5853,6842.2852,-13026.7157,-1223.1064,0
7.504790,2030.9343,-15175.7812,-3991.2424,-9911.0136,0
7.504795,2706.8641,-297.3633,-3384.1607,-10678.1605,0
7.504797,3053.7878,-7072.2656,-3072.5735,-11071.9017,0
7.504860,1178.7155,12861.3281,1747.2725,12599.3679,0
7.504872,958.7833,-258.3008,1296.8353,11743.0419,0
7.504878,865.3424,-2695.8008,1105.4613,10720.9629,0
7.504890,646.8592,-5142.0898,657.9916,341.7138,0
7.504950,12740.8448,0.0000,-2440.8127,-10677.0272,0
7.504957,12152.3117,-6196.2891,-1221.2056,-8982.2049,0
7.504970,8524.3258,-13113.7695,691.2859,-7510.0411,0
7.505024,13333.3630,0.0000,-8917.0609,-3112.2555,0
7.505038,9958.3121,-2072.7539,-6041.0275,-1101.5277,0
7.505040,9431.9280,-15141.6016,-5592.4718,-787.9280,0
7.505050,7006.5978,4842.7734,-3525.7384,-2385.9362,0
7.505098,10204.0230,-406.7383,253.3010,10019.5753,0
7.505110,7933.7080,14940.4297,-183.7168,3306.7545,0
7.505120,5950.1697,-2945.8008,-565.5323,-1246.7540,0
7.505172,5802.2002,-539.5508,-4157.2135,4562.6112,0
7.505179,4462.3387,862.7930,-3961.1491,2644.7038,0
7.505201,2048.3908,-196.7773,-3375.1482,-2901.2437,0
7.505214,1869.3468,-11171.3867,-3024.2215,7655.5653,0
7.505251,-574.4935,-13103.5156,-515.3258,7332.8896,0
7.505270,-6955.7472,0.0000,7879.4374,-2677.1217,0
7.505279,-8503.5141,12931.1523,12113.9799,-1551.8643,0
7.505321,-3052.1167,8939.9414,-6725.7805,9188.5105,0
7.505345,-3986.4640,0.0000,-9426.4555,10125.5286,0
7.505359,4557.0421,10182.1289,-10993.5900,2390.6571,0
7.505394,4244.4928,10935.5469,-4979.4887,2450.5142,0
7.505419,11577.2651,-8197.7539,-10986.3326,9055.9060,0
7.505442,-6844.6267,2686.5234,-8013.5360,-1346.2274,0
7.505444,-8599.6783,14831.0547,-7332.4658,-1773.2679,0
7.505463,-4440.9275,-13100.0977,-3831.3177,-4987.7312,0
7.505496,6588.1721,12166.5039,-3338.3933,7748.0618,0
7.505523,-434.0969,3687.5000,-10884.5286,-3327.2530,0
7.505533,-428.7724,2887.2070,-13865.5279,-6618.0461,0
7.505593,-2561.6372,0.0000,-11607.0780,4553.9348,0
7.505602,-5027.2894,-9190.9180,-8888.3916,2285.8647,0
7.505602,-5105.9200,-13063.4766,-8801.6916,2213.5351,0
7.505671,-4897.7283,4864.2578,-3613.3247,-1588.9692,0
7.505672,-4683.8517,4928.2227,-3829.3276,-1249.3834,0
7.505676,-4012.4773,0.0000,-4507.3763,-183.3988,0
7.505686,-2293.6738,11057.1289,-6243.2670,2545.6568,0
7.505747,-1708.0040,-13040.5273,-2399.8238,-1227.9611,0
7.505755,-2257.7829,-398.9258,-6244.1948,1660.3432,0
7.505773,2037.3220,8930.1758,-10832.2409,1062.1451,0
7.505818,-1211.9957,-1031.7383,2483.3531,9015.8542,0
7.505834,-6578.6061,-406.7383,-4581.3102,9071.3687,0
7.505837,-6855.3221,2848.1445,-5728.3840,8464.4636,0
7.505852,-8511.1906,-571.7773,-12592.4733,-406.7383,0
7.505888,-2983.2822,-9005.8594,-183.6311,9685.2979,0
7.505913,-12426.8613,-406.7383,700.1404,7956.5472,0
7.505931,608.6248,-945.3125,-5424.9105,409.7186,0
7.505959,5827.8795,6990.7227,-857.9615,7936.2845,0
7.505992,15212.8649,-406.7383,-11255.7794,6615.8141,0
7.505994,15228.1223,-13145.0195,-12233.5678,5890.9828,0
7.506014,15072.2145,-447.2656,-11196.5942,-505.7550,0
7.506031,7133.1355,5024.9023,-8851.4916,-967.8419,0
7.506066,-3839.7146,-406.7383,507.5217,4900.6802,0
7.506096,-3734.2048,1054.1992,8264.3662,-2387.1209,0
7.506151,-9375.9450,-11147.9492,-4154.4656,2884.0768,0
7.506152,-10121.1064,-406.7383,-4523.3638,2652.8533,0
7.506174,-11701.3318,-1820.3125,-10142.2278,-492.2676,0
7.506253,-452.7162,3679.6875,5109.7781,-755.8592,0
7.506272,-6113.7174,-359.8633,2701.1036,-1519.5388,0
7.506320,5770.9829,-11143.5547,-5195.2628,-7743.6015,0
7.506332,837.5742,-2946.7773,-3951.1234,-10806.5469,0
7.506350,5165.5921,-14160.1562,-2105.8468,-15349.4317,0
7.506413,-2156.3651,1679.6875,3877.3865,-5248.3752,0
7.506423,-4438.9624,13120.1172,4598.1965,-6375.0823,0
7.506482,-576.9016,8836.9141,-2121.3603,-1423.0215,0
7.506492,-1069.7523,4680.1758,-494.1035,-1693.2555,0
7.506496,-1264.9444,13534.6680,150.3668,-1800.2809,0
7.506570,-1365.9409,-11971.6797,7041.7888,2371.8744,0
7.506573,-1509.3011,3806.1523,6551.6603,2003.6246,0
7.506618,-1168.1692,2848.1445,1409.1893,323.6955,0
7.506649,3989.4160,-7596.1914,10023.1118,639.9353,0
7.506712,-414.5508,-1155.7617,-1769.3631,6733.7449,0
7.506722,-414.5508,-9947.7539,-2287.0867,7713.2655,0
7.506794,1047.7977,-8994.6289,-406.7383,-406.7383,0
7.506801,881.9985,6555.6641,-406.7383,-406.7383,0
7.506806,731.6651,873.5352,-406.7383,-406.7383,0
7.506868,-4930.8661,-10081.0547,5567.6066,-3814.4576,0
7.506884,-615.9252,11556.1523,2935.3129,-649.0883,0
7.506898,-548.0950,-5145.9961,855.5279,7234.9475,0
7.506942,-6501.5251,-11925.2930,1195.0760,3049.2550,0
7.506967,6224.1639,3931.6406,-261.1493,-360.8691,0
7.506991,1079.3671,-1140.1367,208.3693,683.8173,0
7.507028,1293.2589,-13815.9180,634.9786,4183.2329,0
7.507067,-5293.3594,7680.1758,-474.3631,1618.3764,0
7.507084,-1747.5586,14875.4883,2555.5996,3170.5576,0
7.507109,3860.8678,15894.0430,6831.2180,-11872.6168,0
7.507159,-1249.4334,-7943.8477,2545.9938,7915.1498,0
7.507175,-441.8802,-15118.1641,5974.7001,11887.9216,0
7.507184,-461.2449,13268.5547,7817.0374,13421.6423,0
7.507238,-184.0010,11932.1289,12297.8405,-3821.2675,0
7.507256,4178.8403,14284.6680,9611.4102,-5661.9648,0
7.507272,-3756.3307,-9112.7930,7052.7011,4549.0353,0
7.507329,-7854.0599,15198.7305,-92.9229,7880.3414,0
7.507352,-9395.3907,5558.5938,-295.0208,8860.8999,0
7.507364,-5916.7878,-5125.0000,-398.7901,-4846.4330,0
7.507401,6639.9237,15370.6055,-2919.5828,8353.5604,0
7.507428,-3764.7592,-7678.7109,-280.1070,11671.1840,0
7.507455,-587.6525,10875.0000,-3919.5154,7845.9327,0
7.507472,-6030.4551,13674.8047,-6292.2024,4228.0616,0
7.507508,-11018.1437,-7791.0156,-454.7982,7414.4550,0
7.507543,4649.5040,12377.9297,-8550.9460,-6502.4153,0
7.507547,5891.5116,-5091.3086,-8472.9607,-7989.0153,0
7.507584,4724.2327,15824.7070,-1857.8432,-8195.7580,0
7.507607,-3940.7179,2938.9648,-12697.3933,-559.6850,0
7.507616,-7551.5097,10502.4414,-373.4751,-4835.5086,0
7.507657,-3861.3238,8885.7422,-572.2247,-14204.1156,0
7.507662,-2587.7115,-13558.1055,-712.0646,-14373.9645,0
7.507688,4987.3448,13534.1797,-1529.2444,-1085.1367,0
7.507743,848.7910,3685.0586,-266.5251,-8865.7579,0
7.507749,-189.2968,-9107.9102,-214.5458,-8622.5612,0
7.507763,501.8985,14737.7930,-113.1516,-7562.4086,0
7.507828,-1288.7733,7929.6875,-3318.6633,966.1300,0
7.507843,-3889.6458,902.8320,-5141.9459,2807.8992,0
7.507844,-4161.0412,15229.9805,-5332.2015,3000.0838,0
7.507905,-7426.5990,2804.6875,-7968.3993,10405.4970,0
7.507915,-13674.7939,15519.0430,-7929.5787,11942.1219,0
7.507938,-6625.2665,4914.5508,-7846.9723,-4334.6714,0
7.507988,6215.0154,-7089.3555,-7424.3426,2484.5148,0
7.507994,8925.8579,14675.2930,-6594.2890,3672.0649,0
7.508031,4837.0757,8879.3945,948.2025,-2666.5541,0
7.508064,11328.6596,14972.1680,-2553.1074,-777.7412,0
7.508066,11438.9167,-2353.0273,-2802.8855,-1655.2432,0
7.508128,4378.5844,-13098.1445,-6744.5759,9124.5978,0
7.508136,3711.9366,15651.8555,-6830.6359,9721.7952,0
7.508151,5828.8904,7526.8555,-6998.1855,10474.0503,0
7.508205,-1364.2812,14144.0430,-7888.6529,-2551.2979,0
7.508221,-827.1230,8867.1875,-10310.1629,-9143.7799,0
7.508234,2220.3445,13752.4414,-12433.1241,-2055.5943,0
7.508275,-2260.3358,10611.8164,7955.6718,-6585.3721,0
7.508311,6833.0779,0.0000,14372.8562,-898.9738,0
7.508314,8120.5436,-5142.0898,13922.9765,-976.1625,0
7.508345,3502.3246,10893.0664,9137.3513,-3706.4053,0
7.508392,-12451.8037,-9860.8398,11310.3993,-175.3777,0
7.508410,-12316.4055,4829.5898,6397.7102,-37.0078,0
7.508414,-11105.5229,10604.0039,5198.1224,-3.2204,0
7.508473,-11017.8755,7877.4414,6320.4244,-130.4318,0
7.508486,-7966.2975,12338.8672,4131.3010,-40.1791,0
7.508505,-4475.7367,-15162.1094,953.3772,215.7043,0
7.508548,-7059.5965,-12626.4648,4308.4551,5219.3461,0
7.508556,-4097.3356,13964.3555,5208.1718,2959.1953,0
7.508591,520.3629,-13122.5586,-15756.2922,2484.9559,0
7.508623,-10350.6280,-6251.9531,-1403.0711,9084.9778,0
7.508626,-10309.4908,13041.9922,-404.2542,8002.0003,0
7.508696,728.9460,12932.6172,-5269.2055,-10134.5494,0
7.508701,-200.0300,-7251.9531,-6554.8839,-10311.1082,0
7.508704,-676.8307,12842.2852,-7214.7635,-10401.7278,0
7.508766,3186.8902,14127.9297,5686.4543,-8467.0610,0
7.508779,2592.3513,2921.3867,4220.5177,-8850.2949,0
7.508784,2339.7539,-13153.3203,3597.6958,-8423.4503,0
7.508856,-3555.0877,0.0000,-7254.5534,-2539.9197,0
7.508864,-6304.2932,10856.9336,-3707.7795,-983.8060,0
7.508876,-6064.8569,13791.9922,2087.0675,-1656.4052,0
7.508930,-4562.3016,0.0000,-4908.9785,-7254.7064,0
7.508944,-5099.8512,4891.6016,2029.9186,-6695.2637,0
7.508946,-5183.6892,13628.4180,3112.1319,-6608.0111,0
7.509004,15054.0824,-6501.9531,8392.8409,-7889.5315,0
7.509016,10418.5465,14792.4805,10830.3730,-6996.8295,0
7.509026,6368.5521,-1108.3984,12960.0064,-8671.0826,0
7.509078,-1172.7224,-3256.8359,-2497.6864,-1462.7939,0
7.509085,2587.4214,14651.8555,-4653.1115,-3407.6442,0
7.509107,-344.5821,-15116.2109,-11095.2842,-12751.7567,0
7.509157,-5913.1991,14284.6680,866.3420,-12870.7031,0
7.509176,10275.4309,1875.0000,-7519.6957,-12287.9151,0
7.509186,5703.8282,-9153.3203,-11749.8368,-9420.2513,0
7.509227,-6462.2393,15659.6680,-6844.9824,-11381.3104,0
7.509251,-10182.9525,0.0000,7403.5771,-11877.4620,0
7.509265,-8904.0232,-5065.9180,15671.6619,-7929.7012,0
7.509300,-6811.7351,15011.2305,-3149.5438,-11656.4575,0
7.509325,8992.3452,15341.3086,-13199.3825,-10640.5043,0
7.509348,-3297.3481,9010.7422,-7924.2484,-3466.8046,0
7.509369,-6393.6999,14745.6055,-2197.4529,9207.4432,0
7.509402,-8181.7350,6407.2266,-14784.5328,-9741.6007,0
7.509429,-6658.8652,-5004.3945,-525.3211,-3639.6095,0
7.509439,-6650.1721,15065.9180,5140.3403,-414.3627,0
7.509499,-6702.9165,0.0000,-9644.2526,-8543.8153,0
7.509508,-6673.0988,-11048.8281,-7385.3121,-7610.2552,0
7.509509,-6672.1479,15276.8555,-7313.2735,-7580.4836,0
7.509578,-12234.3683,15308.1055,-13741.7522,-5457.8318,0
7.509582,-11918.6098,1377.9297,-13947.6303,-7003.4635,0
7.509592,-11110.2283,8919.4336,-14474.7044,-10960.4765,0
7.509653,-7917.4478,15261.2305,-4892.9066,-14910.4699,0
7.509661,-8744.8279,-6501.9531,-7306.8226,-14871.1692,0
7.509680,-8567.9164,12883.7891,-12921.9138,-8717.4973,0
7.509724,-4790.5428,15644.0430,-13834.8842,-8841.1764,0
7.509740,6624.6444,-6501.9531,-14436.4792,-15238.3784,0
7.509759,-779.2088,-7124.0234,-15118.6739,-6501.9531,0
7.509794,-7021.4400,-15895.0195,3007.2283,2785.7282,0
7.509819,8416.0824,-6501.9531,10084.1838,6937.3535,0
7.509838,-5454.0212,10868.1641,10849.4914,-5077.1580,0
7.509865,-9390.2303,15237.7930,-13.9558,6468.6444,0
7.509899,-10701.9287,-6501.9531,13099.9680,4755.5480,0
7.509920,-9131.5810,-3154.2969,12413.4078,-3604.3586,0
7.509937,-7847.6177,-15824.7070,9287.8547,9918.0157,0
7.509972,293.9258,-6501.9531,-760.7023,2202.9925,0
7.510002,-388.1919,10892.5781,-2739.1324,-9317.2517,0
7.510059,4084.0480,-6501.9531,570.6369,717.5128,0
7.510080,3749.3099,-7109.3750,1279.4747,-5327.3331,0
7.510159,-6597.6445,-7097.1680,7983.4469,-10580.7107,0
7.510178,-2250.3619,-15259.7656,4220.1670,-14814.7331,0
7.510238,-6143.5711,-11122.0703,2878.7323,-12309.5263,0
7.510256,-4472.7425,-11559.5703,1534.2900,-14846.4129,0
7.510319,-4756.9819,4858.3984,-7695.6840,-1327.8130,0
7.510330,-2306.4386,14419.4336,-6184.8852,-123.7284,0
7.510399,-8209.3873,889.1602,12699.6032,-5420.2054,0
7.510403,-8680.8126,9183.1055,12856.9336,-5330.2148,0
7.510476,-6626.9531,-10791.5039,-6501.9531,-6501.9531,0
7.510479,-6626.9531,6890.1367,-6501.9531,-6501.9531,0
7.510555,-6626.9531,-6160.1562,-6501.9531,-6501.9531,0
7.510628,-6658.1493,-8908.6914,-6097.4259,-5583.3265,0
7.510701,8614.6467,-12286.6211,-6501.9531,-6501.9531,0
7.510707,6886.5742,-15100.5859,-6501.9531,-6501.9531,0
7.510774,4449.8162,-2668.4570,-7305.3892,-5526.2032,0
7.510791,1139.0279,-13118.6523,-6950.9321,-6432.5598,0
7.510849,6454.8683,11949.7070,-5966.5569,8865.2581,0
7.510873,2783.2750,-1108.3984,-6326.9485,8322.0982,0
7.510935,6968.2706,15198.2422,1491.5295,-2440.7297,0
7.510973,5103.5456,8866.6992,-6021.9272,5692.9466,0
7.511015,-1229.6093,-4691.4062,1655.4024,4910.7231,0
7.511065,-5626.3690,-9149.9023,-3577.2799,609.8915,0
7.511090,-7068.9318,-12449.7070,1643.6745,800.9683,0
7.511145,-6569.2496,2916.9922,-8303.6563,691.3604,0
7.511162,-3529.5064,1922.3633,-10027.6227,1024.3874,0
7.511235,-6626.9531,-12189.4531,-6501.9531,4759.6294,0
7.511258,-6626.9531,945.8008,-6501.9531,9191.6016,0
7.511307,-5371.6282,13555.1758,-7678.1116,-8266.1749,0
7.511334,-5553.9767,11162.1094,-6779.8909,-4717.4214,0
7.511378,-5654.2174,-15574.2188,-6069.4101,14478.3854,0
7.511414,-5770.1627,13315.9180,-6546.0737,13263.7080,0
7.511449,-8512.3896,5422.8516,-13978.5952,3331.1657,0
7.511490,-8469.8622,-8796.8750,-6907.4860,-2454.2283,0
7.511514,-6664.0454,15284.6680,-10858.5868,-165.0102,0
7.511523,-6702.0279,-14575.6836,-12322.2324,-1963.1056,0
7.511568,-6673.0703,-4888.1836,-2798.6307,-6483.6527,0
7.511594,-5319.3833,-944.8242,7112.9942,-6141.2797,0
7.511649,-6184.3900,14956.0547,-6559.4266,4698.9102,0
7.511669,-5575.4426,13181.1523,-6622.2946,7610.7486,0
7.511735,-5710.3352,-3104.0039,-700.7668,-14443.2742,0
7.511750,-2725.4513,-8439.4531,3310.6380,-15080.5232,0
7.511811,-6579.3005,8883.7891,-6598.6872,3863.2432,0
7.511822,-6307.7150,-4316.8945,-6641.4213,7140.5794,0
7.511895,3781.0236,-1465.3320,-3559.1541,537.7546,0
7.511900,2687.6400,-15690.9180,-3199.2602,-956.1555,0
7.511970,5152.1466,-11438.9648,6616.3355,13510.6233,0
7.511972,5435.6493,-1648.4375,5994.4457,13540.7305,0
7.512042,-3900.2344,-6439.9414,-1498.0490,-6893.1335,0
7.512057,-6440.3754,2389.1602,1829.5819,-11007.5934,0
7.512112,-6367.1056,5052.2461,-5318.3257,11614.1357,0
7.512140,-2399.6034,8024.9023,3554.8258,7906.7548,0
7.512181,4741.8764,9539.0625,-1802.4600,-5821.9141,0
7.512218,6530.1765,0.0000,11591.0591,115.9851,0
7.512251,5864.3940,1536.6211,1048.7615,1052.5593,0
7.512298,-1339.0921,10034.1797,4841.4789,-2803.5174,0
7.512321,-3272.0869,10417.9688,2225.0850,-51.4803,0
7.512379,9922.7161,-11996.0938,7295.7171,-2085.0305,0
7.512392,7622.1165,8933.1055,4768.7942,-642.2868,0
7.512454,-4005.2241,9974.6094,-5586.2411,-1927.7210,0
7.512462,-3440.5540,1931.1523,-4425.9577,-1092.9536,0
7.512530,-3712.5503,-8025.3906,3747.2451,-3827.7180,0
7.512532,-4183.6218,-15948.7305,3338.8005,-3371.4337,0
7.512603,-3022.7463,-12318.3594,-8829.0450,-3938.9519,0
7.512607,-4082.3773,-2025.8789,-8119.9372,-4378.9950,0
7.512672,146.9017,-5321.2891,100.1560,-9471.3386,0
7.512685,492.6644,12000.0000,74.3363,-12096.5465,0
7.512762,-2701.4108,0.0000,-2538.5023,-5457.1877,0
7.512782,-240.4668,-3069.3359,5299.1350,-4565.9098,0
7.512837,-8856.6222,-15947.2656,-289.1084,-8945.6213,0
7.512852,-9756.1444,177.2461,4929.1415,-8155.4646,0
7.512910,-7759.5766,-8025.8789,4407.2552,-4437.1037,0
7.512922,-8244.2301,3805.1758,2980.3983,-6745.9511,0
7.512984,-1242.5626,9670.8984,7620.8018,-9713.0956,0
7.512992,-1127.9004,8555.1758,7838.0585,-9061.7303,0
7.513064,-10032.6510,9432.6172,-1192.5388,6547.8857,0
7.513082,-10436.1469,8000.0000,5352.4462,9830.0853,0
7.513134,-10274.2958,-15568.3594,2536.9944,4569.2828,0
7.513157,-2442.8393,0.0000,119.2568,7287.4405,0
7.513206,-4078.1271,-12567.3828,-6814.3037,-174.8110,0
7.513231,-146.1745,-4500.4883,-8379.1726,545.0670,0
7.513275,-242.5358,13559.5703,-13424.2663,-10405.4483,0
7.513309,2326.8353,10179.1992,-4273.7078,-10202.1831,0
7.513345,3865.5190,-3440.4297,-9798.0589,872.5817,0
7.513406,-14465.7518,0.0000,-2391.4357,-2465.6546,0
7.513415,-13786.0568,-13067.8711,-1813.4348,-5088.9170,0
7.513485,13184.0724,-11440.9180,379.1267,-2376.0614,0
7.513488,13285.2316,-12000.0000,739.3667,-2617.4909,0
7.513560,-10149.9838,-7815.9180,1662.1589,-13056.1823,0
7.513568,-10245.4641,-8025.8789,3234.5790,-13854.6768,0
7.513630,-11398.5086,-6690.4297,-10674.9184,6364.2710,0
7.513647,-6887.1352,-8025.8789,-9706.4962,12015.5342,0
7.513701,-6603.2270,-12065.9180,-10394.0038,-6466.7462,0
7.513725,-8312.1727,-8025.8789,-7722.5175,-6285.1741,0
7.513771,-7986.6693,-12314.9414,4623.9698,2331.1787,0
7.513805,-459.8112,-8025.8789,13405.7695,1266.1333,0
7.513844,-178.2426,-7064.9414,1057.9058,-8025.8789,0
7.513878,-10026.3672,-8025.8789,4400.0255,-8025.8789,0
7.513965,-10026.3672,-8025.8789,12119.9141,-8073.6894,0
7.514084,-10026.3672,5733.3984,11492.8524,-8025.8789,0
7.514163,-10026.3672,7015.6250,-373.4386,-8025.8789,0
7.514236,-10026.3672,-9328.1250,644.1314,-8025.8789,0
7.514309,-10026.3672,10910.1562,3782.2631,-8025.8789,0
7.514382,-10026.4806,-6641.6016,-8025.8789,-8025.8789,0
7.514462,-10026.7301,5497.5586,-8025.8789,-8025.8789,0
7.514534,-10525.5066,-2556.1523,-8025.8789,-9526.8252,0
7.514607,-11531.4866,-6607.9102,-7032.1279,-8533.4189,0
7.514680,-10026.3672,11309.5703,-7000.7533,-8025.8789,0
7.514755,-10026.3672,-2767.5781,-8025.8789,3741.6986,0
7.514841,-9353.1241,9139.6484,-6927.4046,1818.0661,0
7.514921,-8539.7943,-15083.0078,-7071.0985,0.0000,0
7.514996,-6120.5088,12795.4102,-8025.3906,0.0000,0
7.515068,-10026.4876,-5156.7383,-8025.6351,4874.6851,0
7.515141,-10026.7312,925.7812,-8025.8789,12919.2538,0
7.515213,-10026.3672,14897.9492,-8025.8789,-6370.0143,0
7.515285,-10026.3672,2820.3125,-7024.1032,4959.5580,0
7.515355,-10026.3672,4762.2070,-6989.6068,11103.4037,0
7.515420,-10026.3672,-8566.8945,-8025.8789,2561.7743,0
7.515429,-10026.3672,-11179.1992,-8025.8789,842.9536,0
7.515501,-10026.3672,8895.0195,-8025.8789,9449.9830,0
7.515575,-10026.3672,-9090.3320,-8025.8789,10991.7685,0
7.515657,-2758.7365,-9076.6602,-8025.8789,-816.4502,0
7.515728,11613.3665,-5093.7500,-1330.0596,8531.7501,0
7.515807,-2180.4719,-7092.2852,3711.7237,7359.0617,0
7.515876,-4379.3496,4980.9570,826.7629,-307.8892,0
7.515948,-11592.8262,15002.9297,694.5431,3578.8667,0
7.516018,-8318.9680,-9210.4492,-6687.0940,11858.0802,0
7.516088,8660.5134,-7385.7422,-11960.5228,-2419.1954,0
7.516157,14940.6644,-13321.7773,-2075.4812,-8025.8789,0
7.516227,15123.0166,658.6914,-2773.5532,-8026.2357,0
7.516299,11327.6254,4875.9766,-4978.5227,6991.0110,0
7.516368,-105.7472,-7182.1289,1050.0528,1212.3927,0
7.516438,878.5752,-3163.5742,-4972.7704,-4024.9941,0
7.516509,1559.2296,-5074.2188,-8840.7464,4464.1817,0
7.516578,4072.3820,2909.1797,-3054.9531,10470.8210,0
7.516688,-14321.0383,6874.5117,-4895.9646,-1964.8361,0
7.516759,-12809.0709,-5126.9531,-2960.1433,-10695.9642,0
7.516829,-6873.9578,2875.4883,2028.6224,-5237.4301,0
7.516898,526.1439,14912.5977,4674.9626,147.5661,0
7.516970,4138.8898,-3073.2422,10023.8180,5657.6544,0
7.517040,-10503.0265,-3088.8672,-805.6729,-7699.9551,0
7.517112,-3950.6853,6914.0625,-10002.9818,-6754.2471,0
7.517181,-3435.1584,10984.3750,-9024.1849,-12327.1271,0
7.517252,-6488.6632,2923.3398,-3031.8593,-10373.5682,0
7.517321,-8471.2679,2903.3203,3962.4344,-7378.8807,0
7.517391,-13516.6285,923.3398,6206.3466,-6912.4724,0
7.517466,-8002.1896,-3090.3320,3.5391,8075.8679,0
7.517537,2430.9259,-5056.6406,5068.6714,5332.6113,0
7.517607,11251.6282,6961.9141,2989.9611,1275.2686,0
7.517677,11786.7503,-1003.4180,-9992.5650,-3647.8834,0
7.517750,13424.0526,6938.9648,-12481.7885,-8396.4777,0
7.519326,13099.2320,-15005.8594,-620.7725,-1854.1901,0
7.523232,-7244.7620,15698.7305,10804.0925,6112.4895,0
7.527139,-1697.7294,-15315.9180,2061.6878,-972.9050,0
7.531045,7094.2068,-5052.7344,491.3047,9823.6910,0
7.544687,-5889.0317,15526.8555,13086.3269,-8114.2442,0
7.548593,8901.8352,-14067.8711,9005.3536,7722.6613,0
7.552499,8186.3566,-1059.5703,9592.9067,2587.0981,0
7.556406,-6487.1284,14894.0430,5052.5409,-12372.1222,0
7.560312,-4779.1724,-10939.4531,-11487.8201,-7985.1051,0
7.564218,-13912.6322,8937.0117,1465.8327,-10669.7052,0
7.568124,-6930.2847,14425.2930,11881.5642,-7761.4640,0
7.572031,2634.6026,12308.5938,6677.1092,-710.8671,0
7.575937,14982.7788,919.9219,7580.5012,-7853.0608,0
7.589743,-7506.1415,14394.0430,13673.1424,-10170.9655,0
7.593650,-1114.0189,10683.5938,7095.1184,8183.5449,0
7.597556,-2745.0134,4934.5703,14857.7467,3837.2200,0
7.601462,-6312.1378,14714.3555,13624.6289,-8359.6127,0
7.605368,8419.5307,13558.5938,4922.8904,9518.6966,0
7.609275,2851.7322,-15080.5664,-3273.7176,-10376.7786,0
7.613181,-7181.0423,14597.1680,13394.4928,-10324.0050,0
7.617087,3816.5694,14932.6172,3731.9643,9480.8460,0
7.620993,7354.3243,4941.8945,12917.6289,15015.7583,0
7.649836,-7795.2586,15011.2305,11942.6912,8664.1867,0
7.653742,-1412.9290,13684.0820,5941.9388,1619.0789,0
7.657648,4037.3314,936.5234,7041.1159,-2066.4462,0
7.661555,-5164.6559,14729.9805,13981.9382,-5137.4131,0
7.665461,11914.5376,9432.6172,4950.2533,7791.2561,0
7.669367,-10152.1194,12960.9375,-815.9338,-4446.6455,0
7.673273,-6341.6043,15050.2930,12600.3966,-10354.0739,0
7.677180,1982.1701,-14939.4531,11570.8508,8272.5661,0
7.681086,-8395.6030,2922.8516,1003.7736,1473.7511,0
7.692907,-8371.6554,14854.9805,3134.3733,-3967.9080,0
7.696813,3648.7587,-11816.8945,-5420.5103,2982.7071,0
7.700719,3452.0061,-1067.3828,7731.9370,-10331.3662,0
7.704625,-2848.8861,14940.9180,13442.2434,4094.2606,0
7.708532,-4373.4483,12559.0820,568.3821,109.3077,0
7.712438,-10364.2228,10971.6797,-3295.1032,-5730.2152,0
7.716344,-10024.6181,15440.9180,-624.9133,-9304.6558,0
7.720250,-9685.0134,-9189.9414,2045.2767,-12879.0963,0
7.724157,-9345.4087,14925.2930,4715.4666,-14611.1687,0
7.739993,-2037.1062,14776.8555,11335.4328,7497.7338,0
7.743899,2652.9105,-15566.8945,3708.2169,857.2552,0
7.747805,-6568.0424,4937.9883,5806.6741,-8141.3814,0
7.751712,-7331.6147,15026.8555,13007.1587,-4196.1455,0
7.755618,-4577.5120,-15440.9180,11951.4343,-14754.1433,0
7.759524,-1360.7621,14948.2422,13651.0082,-14529.0938,0
7.763430,-6678.5569,15081.5430,11902.1668,-14304.0443,0
7.767337,540.2423,14308.1055,3391.1375,-14078.9947,0
7.771243,11615.8532,-15064.9414,-848.4179,-13853.9452,0
7.784768,-6168.7573,15042.4805,14371.3307,-14047.3647,0
7.788674,-5053.5072,15558.5938,8501.0107,-3581.1393,0
7.792580,-6443.1890,4953.1250,4427.1157,2265.4546,0
7.796487,-6376.4520,15503.9062,6460.9356,-1891.3822,0
7.800393,-3576.0266,560.0586,-1228.0436,8041.2322,0
7.804299,13247.1518,14944.3359,14678.1520,-6428.3203,0
7.808205,-6596.9227,15472.1680,12546.3854,-9817.0884,0
7.812112,1559.6154,-9942.8711,11162.7093,-735.5637,0
7.816018,-4574.2916,-5077.1484,14920.1230,1044.0399,0
7.829749,-6726.1565,15229.9805,13571.2025,-13034.4844,0
7.833655,3693.0531,15309.5703,12219.4745,-881.2651,0
7.837561,13321.3521,-7000.9766,14695.1257,1311.4186,0
7.841468,-8038.2218,15339.3555,12118.9689,-14941.6170,0
7.845374,-5546.9378,13808.1055,6789.7396,-8180.5790,0
7.849280,-4845.0163,-11042.9688,7951.8269,-5448.6354,0
7.853186,-7711.4306,15636.2305,11635.1899,-10146.6405,0
7.857093,-2003.6598,-10442.8711,6323.2003,2254.7442,0
7.860999,-712.6290,-9061.0352,7592.2000,8117.6612,0
7.874762,-7775.4415,15745.6055,13618.5601,-9519.4574,0
7.878668,-5862.1071,-4564.4531,6005.3454,-7413.9283,0
7.882574,-6676.5379,-7039.5508,1806.0624,-13087.0786,0
7.886480,-7919.0003,15651.8555,12188.6656,-6283.4622,0
7.890387,-6476.4176,-8066.8945,4767.0256,1622.5374,0
7.894293,380.5773,-3047.8516,5518.2238,-6285.4083,0
7.898199,-8122.6032,15448.7305,13902.1309,-3667.1958,0
7.902105,-3129.9341,-10190.4297,3998.9690,12214.8273,0
7.906012,3094.3590,-11029.7852,-10415.8529,11651.2818,0
7.919692,-9180.2195,15542.4805,11206.9240,-7695.5111,0
7.923598,-9939.6613,-7564.9414,288.8916,-5450.1901,0
7.927504,7770.9748,14956.5430,-1696.0304,-14693.8882,0
7.931411,-7768.4268,15081.5430,8637.5930,-8791.6754,0
7.935317,10552.1242,-14815.9180,-3801.1295,4159.9364,0
7.939223,6100.3502,-5015.6250,-1391.2924,1066.7825,0
7.943129,-7741.1490,15839.3555,8528.5210,-10325.3963,0
7.947036,1504.8681,-13441.4062,-3821.9777,-609.9464,0
7.950942,-8561.9450,-3019.0430,-4234.1455,5937.0354,0
7.979776,-7288.8395,15573.7305,9357.5350,-9793.1640,0
7.983683,10050.8156,-11440.9180,-3886.4715,-2655.2498,0
7.987589,2331.4500,950.1953,-2432.1975,-6372.7837,0
7.991495,-8955.7745,15745.6055,11840.6713,-11869.4915,0
7.995401,-12200.4937,-5939.9414,1091.1920,-7327.4612,0
7.999308,-12261.0677,-7034.1797,-1392.8375,-9057.5364,0
8.003214,-7038.9883,15472.1680,8893.1867,-15075.4373,0
8.007120,12524.3366,-3814.9414,-257.7803,-6056.2879,0
8.011026,8925.2236,-5058.5938,2128.6487,4412.6573,0
8.024697,-9187.7275,15565.9180,9140.0683,-14370.8070,0
8.028603,-11427.9350,-5440.9180,1745.2192,-5341.5149,0
8.032509,6143.7631,12970.2148,9384.3286,-1456.1603,0
8.036416,-8157.1500,-15840.3320,9614.5381,-11849.0085,0
8.040322,-7095.7833,-5565.4297,4317.4312,-4628.1995,0
8.044228,13266.4864,-1039.5508,12921.7937,-5679.5743,0
8.048134,-10248.2062,15003.4180,8870.7549,-13815.0250,0
8.052041,-13546.1833,-8440.4297,6668.9458,-13214.2210,0
8.055947,11737.4550,-1077.6367,-1363.0484,-12345.0031,0
8.067860,-769.7688,15769.5312,13836.4005,-545.6747,0
8.071766,-3149.9432,5812.0117,-5653.4985,-10884.2577,0
8.075672,-11025.0464,-15048.8281,3899.3918,9086.0008,0
8.079579,-11113.3298,14909.6680,3853.6600,14266.9875,0
8.083485,-3216.2847,-10688.9648,7105.9617,-8677.5916,0
8.087391,4296.8854,-9044.4336,11025.6595,-8016.3997,0
8.091297,2205.9190,15042.4805,11367.9689,955.8724,0
8.095204,114.9526,-5564.9414,11710.2783,9928.1445,0
8.099110,-1976.0138,-1052.2461,12052.5878,13572.2361,0
8.114193,-5247.3322,14948.7305,10111.8130,5181.7108,0
8.118100,12168.9521,-13816.8945,2666.5897,6051.4109,0
8.122006,-2096.3006,6956.5430,8759.7845,-11027.5662,0
8.125912,-6044.0409,15597.1680,8330.9138,6784.0256,0
8.129818,6016.3562,-11814.4531,-1976.5695,4523.8751,0
8.133725,-2131.8008,-3026.3672,14498.6358,1750.2194,0
8.137631,-6216.7240,15159.6680,8565.7476,-1023.4362,0
8.141537,8177.4030,-13940.4297,-2216.8742,-3797.0919,0
8.145443,10439.5084,-15024.4141,7368.4124,-6570.7475,0
8.159767,-7995.8781,15175.2930,13886.0295,-9937.0724,0
8.163673,2905.9076,15560.0586,11774.9416,5023.6914,0
8.167580,230.6315,-3033.6914,9107.0464,1755.1090,0
8.171486,-9959.7199,15394.0430,7316.8283,-2285.2379,0
8.175392,-11632.7563,-4813.9648,2602.9114,12588.3337,0
8.179298,5528.6197,-11053.2227,14255.9958,-1704.7863,0
8.183205,-7886.7533,15276.8555,6215.8199,-6402.1652,0
8.187111,9145.0960,-12317.8711,-659.4548,6418.4875,0
8.191017,4993.1128,-1030.2734,11079.8924,4288.5448,0
8.204763,-7723.0032,-15910.1562,3859.6183,-7595.2142,0
8.208670,5106.6723,561.5234,-6460.1567,6463.0006,0
8.212576,-12188.7034,12999.5117,11690.7614,-92.6314,0
8.216482,-7220.0139,15745.6055,3756.1419,-7185.4030,0
8.220388,6313.8246,15934.5703,-15432.2950,8431.1587,0
8.224295,-10449.1351,-11019.0430,-5754.2385,15140.8173,0
8.228201,-7624.2136,15323.7305,4180.5939,2712.8965,0
8.232107,7059.8031,-7689.9414,-12942.2129,-9531.2696,0
8.236013,-14458.9717,-15026.3672,-8840.5764,-875.4706,0
8.249838,-7646.6829,15581.5430,4242.4141,2552.1014,0
8.253744,7565.9600,-3812.9883,-10596.4055,-3048.4023,0
8.257650,-10461.4841,6991.6992,-960.6805,11414.7908,0
8.261556,-9199.2249,15839.3555,12502.5229,9554.9825,0
8.265463,-2645.7271,-10815.4297,9808.3321,5968.5957,0
8.269369,12932.2408,-7017.0898,9175.9042,11596.4786,0
8.273275,-7504.0423,15511.2305,13706.0052,8504.9989,0
8.277181,6928.3223,-12065.4297,13915.0258,-1019.5060,0
8.281088,-4665.6416,6966.7969,12965.2170,-797.1119,0
8.294724,-5852.5862,-15207.0312,6191.8841,7882.8505,0
8.298630,13838.7379,7934.5703,-5318.9473,-2594.7266,0
8.302536,7507.7366,-5036.1328,6330.6364,3741.5402,0
8.306443,-8685.0098,15644.0430,13611.2953,2125.8424,0
8.310349,200.3421,-7939.4531,13122.8361,-9370.4633,0
8.314255,11049.0268,973.1445,11379.9509,4013.0136,0
8.318161,-7613.4158,15112.7930,2909.0686,11760.7403,0
8.322068,11232.9441,-11438.4766,-13666.7766,7870.2099,0
8.325974,1097.9634,14999.0234,-7060.9981,7794.1058,0
8.339818,-6972.9833,15948.7305,2776.1694,12373.0647,0
8.343724,13379.4571,-5439.9414,-11057.5026,10214.2715,0
8.347630,7418.0237,6947.2656,2469.3710,12652.1937,0
8.351537,-7696.5496,15659.6680,2626.7486,2648.6719,0
8.355443,8047.1766,-2687.9883,-8006.4086,-5173.4086,0
8.359349,-6944.5608,-6982.4219,7453.9408,8938.7531,0
8.363255,-9158.8585,15089.3555,9330.9257,10059.9256,0
8.367162,222.6485,10436.0352,7355.6105,5805.0329,0
8.371068,1088.4731,970.2148,12784.6933,7920.4141,0
8.384688,-7491.1558,15394.0430,13076.2833,13949.7611,0
8.388594,11964.5830,-688.4766,12340.4192,1509.4459,0
8.392501,4105.5861,-1035.6445,10125.1917,-3310.3299,0
8.396407,-8563.6874,15315.9180,12342.7138,11799.2174,0
8.400313,2093.7575,-10940.9180,11155.8562,10506.9623,0
8.404219,2339.8628,-11017.5781,11506.9082,14887.9853,0
8.408126,-8486.0031,-15887.2070,11205.6127,9059.4609,0
8.412032,1109.8574,-5315.4297,5512.6852,5378.3203,0
8.415938,-2720.4036,14976.5625,1843.1615,13050.4606,0
8.443290,1704.4605,15769.0430,-1123.1805,-6036.7734,0
8.447196,-11292.0373,-4688.4766,5927.4972,4614.8588,0
8.451103,-14371.7760,-7037.5977,12174.5117,13330.1914,0
8.455009,-11767.1301,15566.4062,12593.6371,10000.7464,0
8.458915,-7529.6219,3811.0352,-3126.8515,13660.1246,0
8.462821,2927.3214,4967.2852,-6949.9199,15048.8838,0
8.466728,12058.0666,15433.1055,-3871.9364,15177.4511,0
8.470634,8161.1821,-14689.9414,-793.9529,15306.0184,0
8.474540,4264.2975,-3007.8125,2284.0306,2787.9851,0
8.489095,-7455.3345,15612.7930,13192.3741,7761.0944,0
8.493002,2153.1866,-7563.9648,12444.8392,-6925.6824,0
8.496908,-7058.2291,-13032.2266,9597.5243,13279.0619,0
8.500814,-7701.6257,15401.8555,12188.2754,6379.3380,0
8.504720,1665.9718,-14564.9414,8138.5697,1268.5492,0
8.508627,1239.8190,-5019.0430,6281.4384,3149.4092,0
8.512533,-7892.6296,15237.7930,11885.1443,5030.2691,0
8.516439,3043.6746,-10812.5000,7765.0243,6911.1290,0
8.520345,4759.4545,989.2578,3369.0564,8791.9889,0
8.534730,-8678.4272,15284.6680,11780.1784,2365.8360,0
8.538636,1065.0358,-6188.4766,5961.1883,-5693.1443,0
8.542542,-10534.7885,-1042.9688,3691.6179,11698.7282,0
8.546448,-7549.7393,15331.5430,5333.1385,8889.8283,0
8.550355,10631.5492,-2563.9648,-8242.3229,2312.7792,0
8.554261,-10584.5681,-7028.3203,907.8774,10512.6473,0
8.558167,-9920.8940,14933.1055,11401.2274,5241.4902,0
8.562073,-6320.1828,-13314.4531,1378.6501,-2868.7037,0
8.565980,-6698.1082,-5027.3438,-10897.4141,4353.5502,0
8.579805,-9307.5250,15425.2930,12755.4064,-7425.4484,0
8.583711,1210.9156,-5938.4766,10950.1098,7878.0136,0
8.587617,-6705.9108,3006.8359,-10152.2537,1167.6557,0
8.591523,-9112.2110,-15809.0820,13096.9879,-4920.1316,0
8.595430,4476.3017,-9066.4062,9952.1288,9396.6171,0
8.599336,-14520.6932,-15032.2266,-8313.7046,11714.8424,0
8.603242,-10608.3600,15714.3555,12756.9845,6823.5865,0
8.607148,-7567.5537,-6189.9414,14802.1754,3166.2232,0
8.611055,-688.4033,6978.0273,14794.9345,15077.4882,0
8.624769,-9206.6665,15573.7305,12100.3917,8399.5668,0
8.628675,2407.6061,-7062.5000,10797.1213,-6369.1174,0
8.632582,-6782.5030,4981.9336,11423.7662,-12790.8087,0
8.636488,-8789.0053,15534.6680,13638.4266,-6995.2446,0
8.640394,4286.5622,-4563.9648,11523.1440,8034.9429,0
8.644300,-4950.3579,4984.3750,5979.3584,-390.3823,0
8.648207,-10559.3857,15698.7305,10304.5097,-11532.5476,0
8.652113,-14677.8618,14434.5703,3128.4250,-32.0281,0
8.656019,1186.0030,-5007.8125,1817.5524,7998.3014,0
8.669603,-10075.3612,15276.8555,10520.5988,8194.1067,0
8.673509,-8430.6365,-15440.9180,2296.8573,-3386.0771,0
8.677415,-8687.2506,-7015.6250,-716.3117,-6362.0219,0
8.681321,-8619.9691,-15769.5312,14145.8343,-4772.1255,0
8.685228,2727.5116,57.1289,15471.4731,13660.3561,0
8.689134,-6873.3012,-3076.6602,13992.5500,3938.6894,0
8.693040,-10149.9958,15261.2305,10340.2368,-12081.7598,0
8.696946,-4510.3287,-11563.9648,3136.1181,-4453.3330,0
8.700853,11017.8358,-9025.8789,-1793.9638,-490.4998,0
8.714810,-9727.8973,15401.8555,8758.1591,-12381.3229,0
8.718716,-7285.7656,-7938.9648,-1209.6646,-4421.3865,0
8.722622,-14159.7980,-9007.8125,-214.0583,-4190.8398,0
8.726529,-9552.4648,15370.6055,9423.5194,-12325.3474,0
8.730435,-3370.9537,-12190.4297,2386.3560,-10050.3995,0
8.734341,1916.6464,4948.7305,3808.6602,-12231.6859,0
8.738247,-8587.5923,15667.4805,13228.8452,-6455.7048,0
8.742154,5065.3556,-2563.9648,4216.9116,2903.3867,0
8.746060,12617.4203,14948.2422,-10649.8113,-753.6717,0
8.759766,-10507.6666,14573.7305,11399.2140,-10818.0316,0
8.763672,-6918.8230,-13187.9883,1854.5180,-6022.0037,0
8.767578,2131.5214,10992.6758,-3930.6788,-9670.7081,0
8.771484,-8281.5182,15456.5430,12600.3489,-9169.7394,0
8.775391,2205.9671,-4312.5000,6923.4194,555.8660,0
8.779297,9240.0695,-15027.8320,3529.5069,-3123.9556,0
8.783203,-9549.6794,15261.2305,10303.4072,-13361.2868,0
8.787109,-3107.3224,-8814.9414,3058.7077,-7649.3359,0
8.791016,-2801.9407,-13011.7188,-1673.7717,-4295.2959,0
8.817947,1430.0465,15987.7930,-7690.7644,8230.0593,0
8.821854,7597.3272,-9813.9648,-11149.6141,11670.5381,0
8.825760,-2974.3462,-7008.3008,6309.3143,-10186.0062,0
8.829666,3565.4884,15855.4688,-6344.0253,-11126.0041,0
8.833572,1878.9411,560.5469,-7660.4927,1988.6579,0
8.837479,-8630.1916,-7033.2031,-3435.6308,724.9714,0
8.841385,-8710.8828,15480.4688,-954.3613,-4788.2240,0
8.845291,-8791.5741,187.0117,1526.9082,-10301.4195,0
8.849197,-8872.2653,-1019.5312,4008.1777,-13014.4944,0
8.864094,-7204.6622,-15832.5195,10792.3975,-9254.7880,0
8.868000,4380.9813,-1814.9414,6584.1216,-14786.8294,0
8.871906,9437.1775,12972.1680,12656.6060,-13510.5769,0
8.875812,-7798.6537,15902.3438,11720.2905,-7350.2693,0
8.879719,3887.1752,2062.0117,6574.3773,4809.9235,0
8.883625,2876.6945,1000.0000,781.6381,2151.4483,0
8.887531,-8463.9410,15933.1055,10148.5182,-507.0269,0
8.891437,-4221.8398,-6688.9648,-252.2727,-3165.5020,0
8.895344,-12533.9789,-5010.7422,-5890.8175,-5823.9772,0
8.909817,-11251.0549,15644.0430,8266.1523,-13493.5351,0
8.913723,-13464.8162,-7688.9648,-2200.6648,-11665.7626,0
8.917630,-1741.3185,978.5156,-1268.4497,-12275.6415,0
8.921536,-10644.1435,15987.7930,9207.3282,-10838.9377,0
8.925442,-11559.6267,-4814.9414,-3511.6277,-3368.8661,0
8.929348,-8878.3905,-8990.2344,-5139.6415,-5868.0770,0
8.933255,-9241.0112,15644.0430,13084.6228,-5332.6756,0
8.937161,1345.7919,-6186.5234,4849.8386,-1900.9282,0
8.941067,-8810.2185,8981.9336,-8898.6939,-11549.9956,0
8.954703,-9200.9836,15511.2305,7738.1363,-3200.4377,0
8.958609,11978.0974,-2687.5000,-1881.4876,14779.9338,0
8.962516,-14263.9252,5000.0000,709.5020,2928.6646,0
8.966422,-10533.9120,15847.1680,9094.4080,-2554.9810,0
8.970328,-10806.3584,-7564.9414,449.8123,7473.6474,0
8.974234,11229.8817,9004.3945,2053.9772,-7661.6440,0
8.978141,-10479.7319,15979.9805,9544.0116,-14320.8254,0
8.982047,-9404.9940,-9063.4766,1276.0130,-4565.6575,0
8.985953,6870.6056,12992.6758,-1811.9839,6276.2960,0
8.999681,-10651.4070,15479.9805,10145.1889,-11923.1787,0
9.003587,-5866.4082,-13562.9883,5395.4464,-2377.2098,0
9.007493,7784.3281,-2954.5898,5693.7332,-3090.3643,0
9.011399,-8926.7225,-15762.2070,7909.9101,-4433.9114,0
9.015306,11400.5002,-4686.5234,-4954.6533,9181.5172,0
9.019212,-12670.0683,981.4453,-6176.4741,-2350.7615,0
9.023118,-10336.5808,15589.8438,12231.8245,-8523.7559,0
9.027024,4761.7509,5812.5000,12043.9235,-1671.6491,0
9.030931,-4904.6320,13016.1133,12763.0999,-5927.0415,0
9.059790,-12652.0541,-15644.5312,10917.5489,6040.9662,0
9.063696,1864.7719,11065.4297,9025.7954,3080.3835,0
9.067603,8272.6547,-9012.6953,9878.1005,13582.4379,0
9.071509,-12905.3736,15667.9688,10192.5685,9669.9448,0
9.075415,10597.7395,2812.9883,8189.8065,8986.3009,0
9.079321,-653.9043,10982.4219,11526.5696,12586.1178,0
9.083228,-12974.4822,-15988.7695,12513.0697,8824.6578,0
9.087134,5092.4405,-937.9883,12342.4051,8987.1981,0
9.089798,-9563.7217,-15605.4688,-6523.6488,12767.5675,0
9.091040,2889.6624,-14969.2383,460.4848,5358.2209,0
9.093704,11964.2438,8188.4766,6645.0508,2772.3113,0
9.097611,1061.4502,-8990.7227,7501.3554,9085.1586,0
9.101517,-11959.9123,-15699.7070,9816.0983,5494.7647,0
9.105423,12184.8925,-1437.5000,-1501.3052,2191.4110,0
9.109329,4722.1548,5014.1602,-4221.1070,10687.1886,0
9.113236,-14027.4027,-15848.1445,8328.2462,13582.3575,0
9.117142,-8403.5930,-5062.9883,-3203.7095,8332.3698,0
9.121048,14673.4340,-2970.2148,-10058.3817,1579.8820,0
9.149691,-13357.2608,-15449.2188,11490.9502,3239.5798,0
9.153597,-1806.0519,12188.9648,5234.7386,-12762.5370,0
9.157503,5454.2350,-12990.2344,1644.4624,-3465.2941,0
9.161409,-13477.3103,-15761.7188,8498.1389,6410.0663,0
9.165316,-2733.7402,3061.5234,650.6572,151.2579,0
9.169222,-11055.9625,2983.3984,3242.3740,8950.6499,0
9.173128,-11527.5590,-15277.3438,10847.4996,12988.9306,0
9.177034,8736.0209,12439.9414,9459.2642,12729.8136,0
9.180941,-11850.7429,7027.8320,5946.3851,3085.7622,0
9.192889,-12780.1681,-15973.1445,10010.6631,-2562.5905,0
9.196796,2250.9190,-1435.0586,7450.4587,732.1424,0
9.200702,97.1148,1040.5273,10108.2366,-11563.4790,0
9.204608,-9116.9522,15871.0938,1438.5903,-7741.2655,0
9.208514,-1852.1840,11063.9648,-4470.7978,-9706.5179,0
9.212421,219.9300,-3015.6250,-1792.9083,-11584.3871,0
9.216327,-1694.1273,-15941.4062,3021.3481,-12508.4667,0
9.220233,-3608.1846,6314.9414,7835.6045,-13432.5463,0
9.224139,-5522.2420,-12980.4688,10758.2792,-5920.7539,0
9.238474,-10631.1266,-15761.7188,-3677.5198,1307.3980,0
9.242380,7762.3188,14437.5000,-10571.6924,8603.6539,0
9.246286,-14375.6822,-5015.6250,8949.3960,-14480.1970,0
9.250193,-9384.0761,-14980.4688,5037.6208,8910.7676,0
9.254099,6821.8488,5186.0352,13309.1644,3509.3960,0
9.258005,3999.8615,9007.3242,14516.4005,826.4273,0
9.261911,-10830.8759,-15996.0938,14204.8061,-1568.6158,0
9.265818,-6905.1419,1437.9883,13893.2118,-3963.6589,0
9.269724,12929.7933,7030.7617,13581.6174,-6358.7020,0
9.284725,-8815.0520,-15949.2188,8935.7601,-3247.7236,0
9.288632,-1975.1993,2814.9414,2684.0523,5478.7722,0
9.292538,-3223.1090,3029.2969,7253.2047,-8952.4208,0
9.296444,-9619.3312,-15645.0195,8400.1463,-4025.7417,0
9.300350,-6958.6898,-2189.4531,5046.2557,8584.8227,0
9.304257,-5013.4161,-3031.7383,14128.4165,-2904.7799,0
9.308163,-7900.6097,-15824.2188,10439.3617,-10687.7343,0
9.312069,7950.7346,3311.5234,-619.6997,-7017.6465,0
9.315975,12878.4505,-5001.9531,-10867.1430,-9582.8936,0
9.329723,-7858.3497,15628.4180,9510.1860,-9344.7422,0
9.333630,10926.3542,-5437.5000,-1508.3649,2689.1255,0
9.337536,11770.3708,11035.6445,-4605.5132,694.4662,0
9.341442,-8310.3613,-15676.2695,10205.1658,-2404.1220,0
9.345348,-10826.1496,-7187.9883,-666.1444,9547.5974,0
9.349255,2493.2024,-4992.6758,-4662.1250,1037.9943,0
9.353161,-7042.5680,15612.7930,8538.9975,-9171.5733,0
9.357067,13611.3928,-6562.9883,-2315.3417,-2052.9126,0
9.360973,9250.8832,8980.9570,-8231.2121,4466.5248,0
9.389816,-9366.4383,15495.6055,11096.4054,-9416.7368,0
9.393722,-10091.7738,-5062.5000,2982.6760,-404.6861,0
9.397628,9201.0478,1014.1602,-203.4877,471.2049,0
9.401534,-6376.9774,-15684.0820,10051.0518,37.5074,0
9.405441,12129.1727,-4063.4766,1219.6149,11921.6986,0
9.409347,-3363.5367,-996.0938,-225.5437,341.1350,0
9.413253,-7585.0321,15425.2930,12155.4333,-11694.0312,0
9.417159,5964.8136,-1562.5000,12086.2555,-11869.2935,0
9.419675,-5812.0694,15933.1055,10769.7328,13013.8032,0
9.421066,6121.0782,-13021.9727,10059.7871,11805.7749,0
9.423582,992.9337,-938.9648,5964.1913,12682.8565,0
9.427488,11442.9326,12996.5820,3345.1859,5035.7663,0
9.431394,-8428.3298,-15628.9062,10895.6792,-1530.3358,0
9.435300,4254.6694,2436.0352,9657.8977,8188.5582,0
9.439207,-1444.7226,-13023.4375,14096.3837,-3918.9926,0
9.443113,-9275.7537,15644.0430,11527.9445,-7056.2289,0
9.447019,-141.5707,-6562.0117,8407.4418,-3238.1974,0
9.450925,1121.6285,-12951.1719,7368.9285,-9118.5938,0
9.464691,-8925.4001,15722.6562,4173.7520,-3860.7368,0
9.468597,6762.0020,7064.9414,-7384.2426,5974.1540,0
9.472503,5757.7729,4981.4453,7343.9874,-3479.0235,0
9.476410,-11131.4389,15792.4805,11370.1408,-13048.1642,0
9.480316,-13174.4156,-5686.0352,5517.6817,-3121.7512,0
9.484222,-3300.1414,5007.3242,3301.6873,964.8066,0
9.488128,-10438.1007,15542.4805,10613.1838,-3702.2909,0
9.492035,-8145.1181,-2312.5000,2861.0255,10531.2906,0
9.495941,4998.9976,-966.3086,-3484.1658,8304.3691,0
9.509696,-10156.6485,-15425.7812,12085.1095,-6693.8761,0
9.513602,-8979.5527,60.5469,3750.8183,9010.0277,0
9.517509,-7004.0557,-7000.4883,-2275.9326,4805.8209,0
9.521415,-11089.0754,-15847.6562,11733.8726,-6210.4895,0
9.525321,-10084.7444,5938.4766,5736.7675,3493.3694,0
9.529227,7795.1915,-13003.4180,646.2641,-6907.0286,0
9.533134,-10554.5928,-15769.5312,3694.8383,-6614.6553,0
9.537040,-6220.4477,1063.4766,-10453.3230,394.8231,0
9.540946,4981.3744,-10971.1914,47.9995,-11270.4389,0
9.567861,1141.3455,15972.6562,10971.7680,-14602.9355,0
9.571768,6493.7675,2937.0117,-6527.5465,-8814.0030,0
9.575674,-5215.6913,14995.1172,5641.3669,-12651.2898,0
9.579580,224.7000,15917.9688,12868.4818,-14659.9137,0
9.583486,1226.0334,1938.4766,12796.4372,-8913.0380,0
9.587393,-7187.4940,-14980.4688,12751.9185,-2052.7948,0
9.591299,-8013.6113,-15871.5820,12692.0149,4516.6578,0
9.595205,-8839.7286,-8437.0117,12632.1113,11086.1103,0
9.599111,-9665.8459,-959.4727,12572.2077,13560.1132,0
9.614161,-10676.5508,15644.0430,13052.4128,-2513.3074,0
9.618067,-918.8215,-6810.5469,9285.3608,-11702.6428,0
9.621973,-6255.9221,-14909.1797,-7598.7731,12363.8045,0
9.625879,-12587.7678,-15332.5195,11897.2370,-386.1342,0
9.629786,-4464.1551,-311.5234,7254.7458,-12562.3515,0
9.633692,320.7581,-2978.0273,313.2810,-8722.6671,0
9.637598,-10843.4326,15745.6055,7094.9497,-4882.9827,0
9.641504,3132.2522,-2185.5469,-11925.9781,-1043.2982,0
9.645411,-9000.5801,9049.3164,-3995.8599,2796.3862,0
9.659721,-10597.4758,-15887.2070,13383.7366,5639.3441,0
9.663628,12423.9486,-6812.5000,13983.8306,982.5774,0
9.667534,-10887.1691,-10961.9141,14485.4818,2620.4843,0
9.671440,-11438.0350,-15652.8320,5544.3720,-6708.3858,0
9.675346,-4903.6395,-2188.9648,-2912.0879,2570.3420,0
9.679253,-5343.5129,-7025.8789,12981.9266,-7732.3084,0
9.683159,-8981.3572,15839.3555,3921.0634,-13173.3664,0
9.687065,12205.4029,-1312.5000,-14861.2072,-11642.8060,0
9.690971,1000.9781,-13012.2070,-12493.7848,-12961.2701,0
9.704677,-10582.7348,15777.3438,4467.4352,-6024.6719,0
9.708583,-7741.0229,436.5234,-10852.0881,6356.0631,0
9.712490,2458.1625,8989.7461,649.5630,-905.9751,0
9.716396,-10020.1022,-15972.6562,13606.1513,-5146.5626,0
9.720302,-5145.2331,311.5234,6053.7843,525.0374,0
9.724208,-6817.0041,-1013.6719,-4648.9669,-11574.7892,0
9.728115,-8241.0552,15839.8438,4710.9858,-10613.8558,0
9.732021,9132.8315,4312.9883,-7108.3212,-839.8511,0
9.735927,-14525.2604,998.5352,5488.6399,6727.8607,0
9.749708,-10100.4499,15729.9805,10058.7297,-4929.4606,0
9.753615,-7296.3317,-9188.4766,4485.4130,587.8331,0
9.757521,-14272.7334,-3002.9297,6129.3166,-12901.7596,0
9.761427,-8605.6163,-15925.7812,3549.8972,-5623.6833,0
9.765333,4617.7954,2187.0117,-12920.8519,5340.6161,0
9.769240,-14372.9577,-986.8164,-739.3486,-3370.3001,0
9.773146,-9871.9371,-15996.5820,12509.1647,-8009.8116,0
9.777052,-2740.3780,-2562.9883,7963.8612,3909.0168,0
9.780958,3108.7380,-6996.5820,107.1598,4879.4901,0
9.794705,-9806.1915,-15683.5938,12675.2747,-8154.6205,0
9.798611,-5011.1330,1687.0117,3365.1695,-5313.2448,0
9.802517,9439.8450,-995.1172,-5909.3646,-13443.3074,0
9.806424,-9827.4651,-15941.4062,5140.2493,-7403.2069,0
9.810330,-1466.2709,5813.9648,-10778.7238,1895.5792,0
9.814236,5794.1803,-10983.3984,-3270.6390,-5180.4101,0
9.818142,-10270.3812,15894.5312,13181.9703,-7974.7855,0
9.822049,-7239.4411,3564.4531,8999.8545,1904.0314,0
9.825955,-14588.5310,8993.6523,114.3333,1143.2032,0
9.839853,-11033.3686,15941.4062,12239.0185,-7744.4557,0
9.843760,-13887.3994,4313.9648,9453.4024,-5991.5564,0
9.847666,-12525.0887,-6988.2812,8970.0123,-14655.5980,0
9.851572,-11733.2137,15886.7188,13004.5154,-9127.5275,0
9.855478,-13682.0415,1063.9648,10269.2427,-5786.8471,0
9.859385,-93.6681,-4967.2852,7680.5249,-12220.6869,0
9.863291,-11512.6042,-15792.9688,2556.7009,-7010.9428,0
9.867197,-14387.5445,6188.4766,-8440.8537,3655.8144,0
9.871103,-4912.6911,-999.0234,5621.8313,2772.6078,0
9.884764,-9411.6357,15917.4805,12541.8449,-12858.4831,0
9.888670,6967.5032,-1436.5234,4744.7364,-4208.3267,0
9.892576,-1736.8765,15026.8555,-1437.9791,-2673.1123,0
9.896483,-10988.7873,-15847.6562,6680.1505,-4584.2529,0
9.900389,-10583.4457,11938.9648,-176.3123,2021.1984,0
9.904295,-8987.3448,-10998.0469,11611.0700,-10088.3446,0
9.908201,-9352.4450,15957.0312,12230.7039,-12933.0457,0
9.912108,8271.0081,3938.9648,3075.6602,-9869.4175,0
9.916014,2873.0117,-14987.7930,-8809.7492,-9571.2583,0
9.942936,1707.2517,-15621.0938,-5943.5147,-9353.8029,0
9.946843,9840.9886,6938.4766,-10653.3827,-2427.5907,0
9.950749,-2973.6214,-8991.6992,6621.1002,-11015.4770,0
9.954655,1761.5391,-15847.6562,-1061.2334,-2671.7184,0
9.958561,6819.5295,3562.5000,-7181.3144,10299.8416,0
9.962468,-1450.3129,2985.8398,-5268.5544,10144.7671,0
9.966374,-2928.0170,-15683.5938,-2551.5430,6338.1282,0
9.970280,-4405.7211,11438.9648,165.4683,2531.4894,0
9.974186,-5883.4253,-10979.4922,2882.4797,-1275.1495,0
9.989854,-8218.0072,-15871.0938,13672.7638,-10309.0243,0
9.993760,14887.1997,5688.4766,11963.4812,-4022.2952,0
9.997666,11798.2700,-14998.5352,9269.8931,-8404.9661,0
10.001572,-9482.7383,-15800.7812,2513.0236,-14994.3476,0
10.005479,5801.1412,5563.4766,-6443.7602,-11347.2742,0
10.009385,4945.8884,12992.1875,9331.3742,-10549.1331,0
10.013291,-8027.3459,-15777.3438,4806.3475,-14285.9282,0
10.017197,10687.7233,10437.9883,-1366.3217,-5081.3053,0
10.021104,1029.5915,-5004.8828,10934.9479,2456.3918,0
10.049179,-7941.3552,-15691.4062,6192.9943,11839.6935,0
10.053085,6448.7216,6188.9648,-7686.6776,2524.6114,0
10.056991,-2733.9659,3030.2734,8467.6058,-14600.4921,0
10.060897,-7997.7757,-15433.5938,6684.9309,-8827.4263,0
10.064804,3554.2262,12565.9180,-3990.8153,10136.3082,0
10.068710,-14099.8635,9045.4102,14468.4515,2830.1198,0
10.072616,-7104.7359,-15605.4688,8143.2110,-4476.0686,0
10.076522,7019.7726,812.9883,411.0455,-11782.2570,0
10.079754,-14412.9719,-15886.7188,4292.5807,-13378.7650,0
10.080429,-9966.3419,-7008.3008,-338.0116,-12831.9810,0
10.083660,6929.7260,12939.9414,-9847.1752,-1949.3565,0
10.087566,-9047.7145,3038.0859,2385.6231,79.1187,0
10.091472,-9651.2537,-15441.4062,4063.4690,-11139.0924,0
10.095379,8042.4249,7689.9414,-13866.0141,1164.2219,0
10.099285,1750.9143,1029.2969,-5395.5221,218.0620,0
10.103191,-10393.7154,-15847.6562,4323.4068,-12208.2334,0
10.107097,1772.3961,5439.9414,-8222.8435,-4733.5830,0
10.111004,918.6889,-946.2891,2072.6431,-697.6598,0
10.124710,-9695.1233,-15480.4688,5246.9907,-8501.9026,0
10.128616,9863.4941,12940.4297,-12101.7373,4165.5315,0
10.132522,-14494.7202,7034.1797,-4486.4483,685.6365,0
10.136428,-10028.0811,-15136.7188,6132.1327,-9378.5369,0
10.140335,8793.8804,10813.4766,-5478.7459,-1784.0872,0
10.144241,-6973.9677,-6962.8906,5000.6756,-5928.9332,0
10.148147,-9027.9150,-15527.3438,13836.4783,-4909.4630,0
10.152053,13494.6798,2065.9180,4799.2472,2918.8674,0
10.155960,-2856.7978,3038.5742,-12470.8043,-4131.7173,0
10.169797,-11168.1295,-15800.7812,8228.8386,-4627.1455,0
10.173704,-8163.3044,5688.4766,-2997.8571,3580.6817,0
10.177610,12814.6222,-2975.0977,1279.3351,-7279.1348,0
10.181516,-10897.8590,-15378.9062,3022.1574,-2868.2228,0
10.185422,-10780.6529,7187.9883,-5487.7473,9034.0044,0
10.189329,-10726.4364,-2958.4961,12628.4500,-2723.8567,0
10.193235,-11306.2846,-15222.6562,12320.2036,-4090.6686,0
10.197141,-9863.1945,10440.4297,9639.1927,5819.8560,0
10.201047,14568.3106,7049.8047,5460.5569,-675.4867,0
10.214763,-9224.9298,-15152.3438,6840.8956,-7503.0917,0
10.218669,10505.7596,10688.9648,-4405.3387,-3860.2204,0
10.222576,10830.0442,15031.7383,-730.3873,-12354.1113,0
10.226482,-8952.5843,-15339.8438,11049.9781,-8970.4773,0
10.230388,13241.5536,13063.9648,9454.5628,-1355.3431,0
10.234294,1857.6670,-989.2578,11310.0200,-6478.5208,0
10.238201,-9935.0722,-15355.4688,7876.0938,-11021.5419,0
10.242107,-167.1073,14189.4531,-4489.7942,-10292.1330,0
10.246013,-12672.8010,-12958.0078,-9001.5446,-14725.3019,0
10.259804,-9787.2841,-15574.2188,8967.4505,-8560.9705,0
10.263710,3253.0379,6190.4297,5836.4386,-5654.3163,0
10.267616,-9018.3080,-12945.8008,11495.0234,-12297.1853,0
10.271522,-9981.9692,-15152.3438,12761.1888,-8715.3216,0
10.275429,4392.8206,10814.9414,10630.0777,-6424.1493,0
10.279335,-1767.7173,5058.5938,8949.6119,-13314.4160,0
10.283241,-9723.0269,-15417.9688,12909.9018,-8217.7925,0
10.287147,6564.5169,6939.9414,7994.1299,1823.8413,0
10.291054,4808.3422,15043.9453,238.8128,2791.7369,0
10.332937,10456.3822,-15308.5938,-568.4075,5381.0532,0
10.336843,10046.2548,5939.4531,3705.3016,4944.8379,0
10.340749,6827.2372,9040.0391,5187.1144,-1739.1347,0
10.344656,3608.2195,-15363.2812,6668.9272,-8423.1072,0
10.348562,389.2018,6937.9883,8150.7400,-12534.8482,0
10.352468,-2829.8158,-6969.2383,9632.5527,-2313.3138,0
10.356374,-6048.8335,-15222.6562,11114.3655,9932.0081,0
10.360281,-9267.8511,11187.5000,12596.1783,-11945.9316,0
10.364187,-10175.1331,-2973.1445,6421.7769,-1580.1766,0
10.364239,-10060.3926,-15519.5312,6078.4392,-1601.1135,0
10.368145,-3602.2978,1314.4531,-8750.9864,-5002.8001,0
10.372052,-6301.7365,3035.6445,3197.5537,-11362.0047,0
10.375958,-10262.6235,-15457.0312,7137.8982,3139.0728,0
10.379864,-4341.4156,7812.9883,-1283.0372,14404.9180,0
10.383770,-9403.6319,-4996.5820,14559.9179,10525.4364,0
10.387677,-8636.4898,-15738.2812,9208.2951,6645.9549,0
10.391583,6030.6606,5063.4766,-5761.1984,2766.4734,0
10.395489,13763.8385,-8969.7266,-12738.7847,-1113.0082,0
10.409697,-10326.9645,-15699.2188,8947.6642,-5137.3755,0
10.413603,3072.2096,5064.9414,3574.5445,8554.7664,0
10.417509,-9027.4493,-4972.1680,13095.1362,548.6042,0
10.421415,-11653.4152,15878.9062,5086.6116,-11573.8030,0
10.425322,-6336.7028,5315.4297,-12921.1301,-4095.2238,0
10.429228,-7222.6760,7036.6211,-5434.0426,-5406.5839,0
10.433134,-11175.0724,-15464.8438,8801.3789,-11805.9939,0
10.437040,374.8811,5688.4766,-2746.7300,-10062.4803,0
10.440947,10732.6797,9049.3164,-3242.3587,-12972.1683,0
10.454846,-9928.2666,-15332.0312,9398.9289,-10185.5066,0
10.458753,184.9063,11689.4531,-1847.8362,3290.9176,0
10.462659,-7286.0122,-10976.5625,2580.3646,2882.1567,0
10.466565,-10817.2912,-15589.8438,9535.0062,-8038.2309,0
10.470471,-205.2883,8313.4766,4182.3520,731.9984,0
10.474378,-3661.3967,1001.4648,12042.7665,-5065.9640,0
10.478284,-10796.0734,-15769.5312,10893.8015,-6482.0006,0
10.482190,-1666.2724,6689.9414,6343.3808,2555.2595,0
10.486096,-3012.2327,-937.9883,11173.2269,-613.7390,0
10.499662,-11271.7578,-15308.5938,9764.4781,-7579.7221,0
10.503568,-762.7168,10190.4297,1787.0193,3382.4465,0
10.507474,-14630.7309,-969.2383,10175.7244,-5475.0441,0
10.511381,-11976.2953,-15753.9062,9550.4400,-14026.9654,0
10.515287,-1924.4441,5315.4297,3477.2716,-5200.6988,0
10.519193,7741.1487,1054.6875,14691.3235,1251.4594,0
10.523099,-11560.5664,-15191.4062,8886.8235,-7280.9257,0
10.527006,-6648.7964,8313.9648,-4811.8813,7680.5511,0
10.530912,-12749.4761,-4950.6836,-3565.4880,3196.7624,0
10.544705,-10542.5502,-15292.9688,11821.0145,-11824.7177,0
10.548611,3867.1538,15815.4297,2413.9827,-3965.6470,0
10.552517,-7294.4408,-8974.1211,-82.1036,-5272.3329,0
10.556423,-11483.6299,-15480.4688,10019.5742,-14930.4846,0
10.560330,-4000.1417,6314.9414,5455.8224,-7731.7682,0
10.564236,-5466.2136,9045.8984,11943.9000,-3945.0153,0
10.568142,-11752.5439,-15300.7812,9291.9092,-14357.2847,0
10.572048,-4879.4030,-13433.1055,-1020.0094,-14097.3279,0
10.575955,-1074.8610,7056.6406,-1490.3444,-14978.9894,0
10.589786,-12599.0596,-15621.0938,7262.0000,-5572.5089,0
10.593693,-11722.6272,2188.9648,-7123.2852,7629.8575,0
10.597599,-5590.0098,-14941.8945,-2250.4133,-2982.1581,0
10.601505,-11779.9996,-15082.0312,9640.1183,-4293.8370,0
10.605411,-6251.0529,8064.4531,4839.2026,6339.1029,0
10.609318,-5620.2815,9037.5977,11920.5750,-7939.4535,0
10.613224,-11552.6775,-15316.4062,9029.4431,-3909.3867,0
10.617130,-2488.0970,13692.3828,431.9536,6390.2038,0
10.621036,2771.1685,5090.3320,2183.0659,-6185.2912,0
10.634714,-12885.6210,-15339.8438,8948.9253,-11682.8031,0
10.638620,-12973.1468,3689.4531,-2557.7430,-1006.2895,0
10.642527,7499.8271,-2929.6875,2196.4978,-2821.6286,0
10.646433,-11923.7699,-15027.3438,9835.6750,-10054.5495,0
10.650339,-5709.7742,10440.4297,1269.3520,1395.4123,0
10.654245,12995.1359,5038.0859,7753.5818,-2758.8977,0
10.658152,-11565.9195,-15191.4062,10706.2120,-6337.6014,0
10.662058,-2032.7613,15190.9180,5705.7785,-272.6842,0
10.665964,4831.7204,11073.7305,13006.4289,-15068.9760,0
10.692897,-2509.6886,-14863.2812,4898.0190,7527.7958,0
10.696803,845.2164,-13808.5938,929.2489,-3335.8593,0
10.700709,-8681.8354,-14953.1250,10184.9882,10002.0240,0
10.704616,-6562.8965,-15996.0938,7855.8311,7563.2820,0
10.708522,7340.7370,10192.8711,4991.1614,3502.4792,0
10.712428,13381.0652,13062.0117,5802.3008,-1037.5725,0
10.716334,9630.8938,-15097.6562,7073.8480,-6407.1962,0
10.720241,5880.7224,14816.8945,8345.3953,-11776.8200,0
10.724147,2130.5510,-8913.0859,9616.9425,-8804.4543,0
10.741775,-1087.7002,-15136.7188,1871.5121,-7360.8760,0
10.745682,11312.7239,8689.9414,-8203.7582,-14676.0546,0
10.749588,-7992.4312,-8948.7305,12157.0501,2145.9114,0
10.753494,-381.6748,-15136.7188,3927.0224,3473.8401,0
10.757400,-8841.0868,11440.9180,1070.5367,4415.7301,0
10.761307,-11785.2858,11072.7539,12701.0683,6143.0399,0
10.765213,-5796.0975,-15058.5938,-409.2097,7870.3496,0
10.769119,-1375.2685,8939.9414,-12043.7864,9597.6594,0
10.773025,-3359.4898,-14962.4023,-6236.1593,11324.9692,0
10.784767,-11069.8529,-15511.7188,9832.2749,7835.8391,0
10.788673,-1681.8344,9939.9414,-318.1842,-8663.4134,0
10.792579,-10854.9917,-10938.9648,2716.3904,-2954.5865,0
10.796486,-10570.9293,-14996.0938,11724.1339,8848.6457,0
10.800392,3064.8309,10565.9180,-278.8811,3999.6021,0
10.804298,12547.7005,-2909.6680,-4176.1455,1711.9225,0
10.808204,-11154.8935,-14785.1562,8390.8027,-12071.2790,0
10.812111,-4646.7870,10937.5000,-361.7796,2025.7373,0
10.816017,832.8233,-975.5859,5757.6625,15017.2691,0
10.829769,-11387.1953,-15175.7812,10479.6432,6323.9794,0
10.833676,-3611.9365,12939.9414,-2974.2632,-7325.6406,0
10.837582,-14527.5159,-952.6367,-4914.6945,-11889.9488,0
10.841488,-10320.5131,-15144.5312,12608.8647,-5374.5249,0
10.845394,5776.5602,15065.4297,791.2166,6192.3442,0
10.849301,-1630.9155,15039.5508,-4883.2654,-4921.4557,0
10.853207,-11617.4146,-14871.0938,9339.4793,-9224.3970,0
10.857113,-7490.8166,-13810.5469,1379.7490,865.3265,0
10.861019,-1085.9317,9023.4375,5723.5295,4499.4998,0
10.874679,-12400.2911,-15488.2812,9565.5587,10597.2581,0
10.878585,-6605.5407,13816.4062,100.9074,-280.0525,0
10.882491,-1596.1307,-14951.1719,3879.1516,-9166.1381,0
10.886398,-11580.6962,-15214.8438,11374.0522,-6567.1145,0
10.890304,-2564.9415,12189.4531,1207.5958,7830.5099,0
10.894210,-3479.0293,-12956.5430,-293.4771,11624.8185,0
10.898116,-10678.7801,-15488.2812,8192.2449,5730.7512,0
10.902023,14224.0552,9940.9180,-5615.5382,-7599.8678,0
10.905929,-6898.5920,7051.7578,-7008.8854,-2624.1479,0
10.920877,-12891.1307,-15238.2812,3337.7075,1908.4468,0
10.924784,-13019.7159,11690.4297,-1907.6490,4134.9980,0
10.928690,-12716.1379,-12940.9180,8524.3962,-9171.5361,0
10.932596,-10922.4867,-15050.7812,9896.7731,2678.4095,0
10.936502,-321.9792,11189.9414,2010.5431,12056.8544,0
10.940409,4991.4587,5046.8750,8383.8918,-7789.8550,0
10.944315,-11356.5147,-15191.4062,7571.6482,-1404.5006,0
10.948221,-3545.2990,7440.9180,6810.3264,1887.1229,0
10.952127,2685.0884,-8916.0156,9811.6906,-2222.0763,0
10.964756,-12497.4889,-15238.2812,7424.8652,-14946.9556,0
10.968662,-12092.7960,6939.9414,-899.5301,-4810.5980,0
10.972568,-5599.2322,-12922.8516,10553.6779,-1008.8392,0
10.976475,-13134.7733,-15269.5312,8319.8608,-3444.0950,0
10.980381,-12829.9660,4188.9648,512.5887,856.4622,0
10.984287,10662.8397,1045.8984,9522.8769,-14722.1398,0
10.988193,-11350.8710,-14886.7188,13265.5734,-14040.2256,0
10.992100,-4656.8214,12189.4531,8485.5032,-14081.1323,0
10.996006,2725.7792,-10955.5664,5718.6212,-15032.0415,0
11.009801,-12342.9281,-15285.1562,10520.7704,-3341.7215,0
11.013708,-5847.1213,13190.9180,4589.6896,12433.8058,0
11.017614,3487.1824,15050.7812,8189.9398,-9.1303,0
11.021520,-11705.1162,-15074.2188,11381.0689,-4681.4208,0
11.025426,-3730.6011,12315.9180,-1390.4939,3693.1959,0
11.029333,5377.7409,15082.5195,-4688.1550,-9148.7999,0
11.033239,-11793.0640,-15253.9062,9280.2908,-5822.8323,0
11.037145,-9229.5614,11190.9180,-2632.9187,9404.2538,0
11.041051,-3092.0032,5056.1523,-4990.7305,9568.3642,0
11.067844,-897.2463,-15175.7812,3959.1815,-8070.7990,0
11.071750,9824.1671,11440.4297,-1091.4495,-3652.7837,0
11.075656,-2837.4319,-10940.9180,8702.1397,9942.1211,0
11.079562,-6531.8099,-15105.4688,-1353.0664,11026.0601,0
11.083469,7137.0083,14066.4062,3353.6989,12131.1522,0
11.087375,11280.2300,-14933.1055,9379.2526,13424.3860,0
11.091281,7599.9058,-14800.7812,10114.9819,14070.7315,0
11.095187,3919.5816,-12933.1055,10850.7112,14717.0770,0
11.099094,239.2574,9069.3359,11586.4404,14998.5803,0
11.114114,-9799.5754,-14941.4062,11286.5603,-8328.9040,0
11.118020,6053.3930,-14559.0820,-892.3307,-4837.9713,0
11.121926,-2893.9245,-14941.8945,-4717.8778,14519.0910,0
11.125833,-12956.2180,-14894.5312,12261.7907,8699.9049,0
11.129739,-10358.8370,15189.9414,8478.3491,-4534.8562,0
11.133645,-2884.4918,-12917.4805,14668.6809,-1759.4789,0
11.137551,-9997.0197,-14769.5312,8284.7778,1015.8984,0
11.141458,5021.1445,12316.4062,-8615.9154,3791.2756,0
11.145364,-1320.1335,-12916.0156,-7477.7458,6566.6529,0
11.159760,-9798.5871,-14769.5312,9746.5730,5216.8894,0
11.163666,14154.7677,15316.4062,1076.5056,-7520.2048,0
11.167573,5170.0480,5083.4961,5423.0688,3627.0892,0
11.171479,-12403.4430,-14675.7812,10222.1955,4774.4020,0
11.175385,-9735.1941,15815.9180,-3297.1140,161.0755,0
11.179291,-5628.9268,-8948.2422,-5117.3497,15051.7059,0
11.183198,-12676.6060,-14988.2812,11083.6662,5641.4828,0
11.187104,-9582.9445,-10932.1289,-98.5836,-720.2833,0
11.191010,2761.2140,5077.6367,-8653.1146,9759.7503,0
11.204739,-9947.1248,-15136.7188,6102.7855,3652.2484,0
11.208646,14707.0738,15692.3828,-6517.9883,-1370.4049,0
11.212552,5054.9018,-8923.8281,5000.7777,14794.6736,0
11.216458,-13350.2764,-15535.1562,10086.2358,5342.5256,0
11.220364,-9859.1773,6193.8477,3487.3965,-781.9574,0
11.224271,8673.6836,-2889.1602,7872.4864,11435.8778,0
11.228177,-12934.7922,-15074.2188,10447.6293,5184.7935,0
11.232083,-10499.9573,11064.9414,-2937.4353,-10415.6132,0
11.235989,-7027.5579,1035.6445,-12510.1193,-9703.8184,0
11.249784,-10808.9955,-15191.4062,9392.0126,3712.7750,0
11.253690,10875.6674,-13558.5938,-3283.7669,-2327.3060,0
11.257596,-5595.8920,15069.8242,-3288.0594,11986.1774,0
11.261503,-11954.8467,-14222.6562,13023.7180,10284.9966,0
11.265409,-6667.4669,-3309.0820,4695.9223,404.1731,0
11.269315,-11088.3999,7050.7812,1824.2404,-8663.9302,0
11.273221,-11600.1072,-14746.0938,9791.4196,-2184.2852,0
11.277128,1252.6169,12814.9414,1007.0543,3133.6364,0
11.281034,6470.9068,9079.1016,2235.3321,-9933.0281,0
11.294763,-13888.8049,-14933.5938,10688.4999,11951.3699,0
11.298669,-6936.6200,-14930.1758,2351.7302,3092.6021,0
11.302575,-4710.8268,1103.5156,3921.7900,459.4615,0
11.306482,14927.6685,-14933.5938,11468.9759,-80.4015,0
11.310388,4241.5951,-11430.6641,4344.0620,-3958.4010,0
11.314294,-6507.3151,-911.6211,3987.5948,10511.7027,0
11.318200,15084.7558,-15160.1562,9861.7569,10824.1089,0
11.322107,6524.7344,-15058.1055,-2971.8080,81.3709,0
