timestamp,TP9,AF7,AF8,TP10,label
0.000000,-12956.5430,14964.3555,15198.7305,-13378.4180,0
0.000000,-12956.5430,14964.3555,15198.7305,-13378.4180,0
0.000000,-12956.5430,14964.3555,15198.7305,-13378.4180,0
0.000000,-12956.5430,14964.3555,15198.7305,-13378.4180,0
0.000000,-12956.5430,14964.3555,15198.7305,-13378.4180,0
0.000000,-12956.5430,14964.3555,15198.7305,-13378.4180,0
0.000000,-12956.5430,14964.3555,15198.7305,-13378.4180,0
0.000000,-12956.5430,14964.3555,15198.7305,-13378.4180,0
0.000000,-12956.5430,14964.3555,15198.7305,-13378.4180,0
0.000000,-12956.5430,14964.3555,15198.7305,-13378.4180,0
0.000000,-12956.5430,14964.3555,15198.7305,-13378.4180,0
0.000000,-12956.5430,14964.3555,15198.7305,-13378.4180,0
0.000000,-12956.5430,14964.3555,15198.7305,-13378.4180,0
0.000000,-12956.5430,14964.3555,15198.7305,-13378.4180,0
0.000000,-12956.5430,14964.3555,15198.7305,-13378.4180,0
0.000000,-12956.5430,14964.3555,15198.7305,-13378.4180,0
0.000000,-12956.5430,14964.3555,15198.7305,-13378.4180,0
0.003906,-13550.2930,-14941.8945,-11189.9414,11573.2422,0
0.003906,-13550.2930,-14941.8945,-11189.9414,11573.2422,0
0.003906,-13550.2930,-14941.8945,-11189.9414,11573.2422,0
0.003906,-13550.2930,-14941.8945,-11189.9414,11573.2422,0
0.003906,-13550.2930,-14941.8945,-11189.9414,11573.2422,0
0.003906,-13550.2930,-14941.8945,-11189.9414,11573.2422,0
0.003906,-13550.2930,-14941.8945,-11189.9414,11573.2422,0
0.003906,-13550.2930,-14941.8945,-11189.9414,11573.2422,0
0.003906,-13550.2930,-14941.8945,-11189.9414,11573.2422,0
0.003906,-13550.2930,-14941.8945,-11189.9414,11573.2422,0
0.003906,-13550.2930,-14941.8945,-11189.9414,11573.2422,0
0.003906,-13550.2930,-14941.8945,-11189.9414,11573.2422,0
0.003906,-13550.2930,-14941.8945,-11189.9414,11573.2422,0
0.003906,-13550.2930,-14941.8945,-11189.9414,11573.2422,0
0.003906,-13550.2930,-14941.8945,-11189.9414,11573.2422,0
0.003906,-13550.2930,-14941.8945,-11189.9414,11573.2422,0
0.003906,-13550.2930,-14941.8945,-11189.9414,11573.2422,0
0.007812,15194.8242,-9074.7070,-9050.2930,13170.8984,0
0.007812,15194.8242,-9074.7070,-9050.2930,13170.8984,0
0.007812,15194.8242,-9074.7070,-9050.2930,13170.8984,0
0.007812,15194.8242,-9074.7070,-9050.2930,13170.8984,0
0.007812,15194.8242,-9074.7070,-9050.2930,13170.8984,0
0.007812,15194.8242,-9074.7070,-9050.2930,13170.8984,0
0.007812,15194.8242,-9074.7070,-9050.2930,13170.8984,0
0.007812,15194.8242,-9074.7070,-9050.2930,13170.8984,0
0.007812,15194.8242,-9074.7070,-9050.2930,13170.8984,0
0.007812,15194.8242,-9074.7070,-9050.2930,13170.8984,0
0.007812,15194.8242,-9074.7070,-9050.2930,13170.8984,0
0.007812,15194.8242,-9074.7070,-9050.2930,13170.8984,0
0.007812,15194.8242,-9074.7070,-9050.2930,13170.8984,0
0.007812,15194.8242,-9074.7070,-9050.2930,13170.8984,0
0.007812,15194.8242,-9074.7070,-9050.2930,13170.8984,0
0.007812,15194.8242,-9074.7070,-9050.2930,13170.8984,0
0.007812,15194.8242,-9074.7070,-9050.2930,13170.8984,0
0.011719,-12792.4805,14909.6680,15136.2305,-13315.9180,0
0.011719,-12792.4805,14909.6680,15136.2305,-13315.9180,0
0.011719,-12792.4805,14909.6680,15136.2305,-13315.9180,0
0.011719,-12792.4805,14909.6680,15136.2305,-13315.9180,0
0.011719,-12792.4805,14909.6680,15136.2305,-13315.9180,0
0.011719,-12792.4805,14909.6680,15136.2305,-13315.9180,0
0.011719,-12792.4805,14909.6680,15136.2305,-13315.9180,0
0.011719,-12792.4805,14909.6680,15136.2305,-13315.9180,0
0.011719,-12792.4805,14909.6680,15136.2305,-13315.9180,0
0.011719,-12792.4805,14909.6680,15136.2305,-13315.9180,0
0.011719,-12792.4805,14909.6680,15136.2305,-13315.9180,0
0.011719,-12792.4805,14909.6680,15136.2305,-13315.9180,0
0.011719,-12792.4805,14909.6680,15136.2305,-13315.9180,0
0.011719,-12792.4805,14909.6680,15136.2305,-13315.9180,0
0.011719,-12792.4805,14909.6680,15136.2305,-13315.9180,0
0.011719,-12792.4805,14909.6680,15136.2305,-13315.9180,0
0.011719,-12792.4805,14909.6680,15136.2305,-13315.9180,0
0.015625,-14550.2930,14183.1055,-10814.4531,9198.2422,0
0.015625,-14550.2930,14183.1055,-10814.4531,9198.2422,0
0.015625,-14550.2930,14183.1055,-10814.4531,9198.2422,0
0.015625,-14550.2930,14183.1055,-10814.4531,9198.2422,0
0.015625,-14550.2930,14183.1055,-10814.4531,9198.2422,0
0.015625,-14550.2930,14183.1055,-10814.4531,9198.2422,0
0.015625,-14550.2930,14183.1055,-10814.4531,9198.2422,0
0.015625,-14550.2930,14183.1055,-10814.4531,9198.2422,0
0.015625,-14550.2930,14183.1055,-10814.4531,9198.2422,0
0.015625,-14550.2930,14183.1055,-10814.4531,9198.2422,0
0.015625,-14550.2930,14183.1055,-10814.4531,9198.2422,0
0.015625,-14550.2930,14183.1055,-10814.4531,9198.2422,0
0.015625,-14550.2930,14183.1055,-10814.4531,9198.2422,0
0.015625,-14550.2930,14183.1055,-10814.4531,9198.2422,0
0.015625,-14550.2930,14183.1055,-10814.4531,9198.2422,0
0.015625,-14550.2930,14183.1055,-10814.4531,9198.2422,0
0.015625,-14550.2930,14183.1055,-10814.4531,9198.2422,0
0.019531,-12796.3867,14954.1016,-9025.3906,7173.8281,0
0.019531,-12796.3867,14954.1016,-9025.3906,7173.8281,0
0.019531,-12796.3867,14954.1016,-9025.3906,7173.8281,0
0.019531,-12796.3867,14954.1016,-9025.3906,7173.8281,0
0.019531,-12796.3867,14954.1016,-9025.3906,7173.8281,0
0.019531,-12796.3867,14954.1016,-9025.3906,7173.8281,0
0.019531,-12796.3867,14954.1016,-9025.3906,7173.8281,0
0.019531,-12796.3867,14954.1016,-9025.3906,7173.8281,0
0.019531,-12796.3867,14954.1016,-9025.3906,7173.8281,0
0.019531,-12796.3867,14954.1016,-9025.3906,7173.8281,0
0.019531,-12796.3867,14954.1016,-9025.3906,7173.8281,0
0.019531,-12796.3867,14954.1016,-9025.3906,7173.8281,0
0.019531,-12796.3867,14954.1016,-9025.3906,7173.8281,0
0.019531,-12796.3867,14954.1016,-9025.3906,7173.8281,0
0.019531,-12796.3867,14954.1016,-9025.3906,7173.8281,0
0.019531,-12796.3867,14954.1016,-9025.3906,7173.8281,0
0.019531,-12796.3867,14954.1016,-9025.3906,7173.8281,0
0.023438,-12909.6680,15229.9805,15456.5430,-13386.2305,0
0.023438,-12909.6680,15229.9805,15456.5430,-13386.2305,0
0.023438,-12909.6680,15229.9805,15456.5430,-13386.2305,0
0.023438,-12909.6680,15229.9805,15456.5430,-13386.2305,0
0.023438,-12909.6680,15229.9805,15456.5430,-13386.2305,0
0.023438,-12909.6680,15229.9805,15456.5430,-13386.2305,0
0.023438,-12909.6680,15229.9805,15456.5430,-13386.2305,0
0.023438,-12909.6680,15229.9805,15456.5430,-13386.2305,0
0.023438,-12909.6680,15229.9805,15456.5430,-13386.2305,0
0.023438,-12909.6680,15229.9805,15456.5430,-13386.2305,0
0.023438,-12909.6680,15229.9805,15456.5430,-13386.2305,0
0.023438,-12909.6680,15229.9805,15456.5430,-13386.2305,0
0.023438,-12909.6680,15229.9805,15456.5430,-13386.2305,0
0.023438,-12909.6680,15229.9805,15456.5430,-13386.2305,0
0.023438,-12909.6680,15229.9805,15456.5430,-13386.2305,0
0.023438,-12909.6680,15229.9805,15456.5430,-13386.2305,0
0.023438,-12909.6680,15229.9805,15456.5430,-13386.2305,0
0.027344,-15800.7812,14182.6172,-9940.4297,8071.2891,0
0.027344,-15800.7812,14182.6172,-9940.4297,8071.2891,0
0.027344,-15800.7812,14182.6172,-9940.4297,8071.2891,0
0.027344,-15800.7812,14182.6172,-9940.4297,8071.2891,0
0.027344,-15800.7812,14182.6172,-9940.4297,8071.2891,0
0.027344,-15800.7812,14182.6172,-9940.4297,8071.2891,0
0.027344,-15800.7812,14182.6172,-9940.4297,8071.2891,0
0.027344,-15800.7812,14182.6172,-9940.4297,8071.2891,0
0.027344,-15800.7812,14182.6172,-9940.4297,8071.2891,0
0.027344,-15800.7812,14182.6172,-9940.4297,8071.2891,0
0.027344,-15800.7812,14182.6172,-9940.4297,8071.2891,0
0.027344,-15800.7812,14182.6172,-9940.4297,8071.2891,0
0.027344,-15800.7812,14182.6172,-9940.4297,8071.2891,0
0.027344,-15800.7812,14182.6172,-9940.4297,8071.2891,0
0.027344,-15800.7812,14182.6172,-9940.4297,8071.2891,0
0.027344,-15800.7812,14182.6172,-9940.4297,8071.2891,0
0.027344,-15800.7812,14182.6172,-9940.4297,8071.2891,0
0.031000,-13214.3555,14870.6055,14987.7930,-13667.4805,0
0.031250,5182.1289,14925.7812,12948.2422,-14852.5391,0
0.031250,5182.1289,14925.7812,12948.2422,-14852.5391,0
0.031250,5182.1289,14925.7812,12948.2422,-14852.5391,0
0.031250,5182.1289,14925.7812,12948.2422,-14852.5391,0
0.031250,5182.1289,14925.7812,12948.2422,-14852.5391,0
0.031250,5182.1289,14925.7812,12948.2422,-14852.5391,0
0.031250,5182.1289,14925.7812,12948.2422,-14852.5391,0
0.031250,5182.1289,14925.7812,12948.2422,-14852.5391,0
0.031250,5182.1289,14925.7812,12948.2422,-14852.5391,0
0.031250,5182.1289,14925.7812,12948.2422,-14852.5391,0
0.031250,5182.1289,14925.7812,12948.2422,-14852.5391,0
0.031250,5182.1289,14925.7812,12948.2422,-14852.5391,0
0.031250,5182.1289,14925.7812,12948.2422,-14852.5391,0
0.031250,5182.1289,14925.7812,12948.2422,-14852.5391,0
0.031250,5182.1289,14925.7812,12948.2422,-14852.5391,0
0.031250,5182.1289,14925.7812,12948.2422,-14852.5391,0
0.031250,5182.1289,14925.7812,12948.2422,-14852.5391,0
0.034906,14699.7070,-15565.9180,-13439.4531,7073.2422,0
0.038812,-14810.5469,8923.8281,-1038.5742,-14836.9141,0
0.042719,-13354.9805,14511.2305,14956.5430,-13722.1680,0
0.046625,9698.2422,10683.1055,-15940.9180,3695.8008,0
0.050531,7170.4102,2937.5000,12952.1484,-2860.8398,0
0.054437,-13214.3555,14862.7930,15315.9180,-13573.7305,0
0.058344,-10674.3164,12684.5703,-11566.8945,-15676.2695,0
0.062250,-2842.7734,6949.7070,-9077.1484,-6882.3242,0
0.078000,-13917.4805,14909.6680,14987.7930,-14402.3438,0
0.081906,6070.8008,15682.6172,-13316.4062,-305.6641,0
0.085812,7105.9570,-5054.1992,8928.2227,13085.4492,0
0.089719,-14253.9062,15456.5430,15026.8555,-14644.5312,0
0.093625,-931.1523,-8565.4297,-15067.8711,-9558.5938,0
0.097531,13092.2852,-1035.1562,-1076.1719,3058.5938,0
0.101437,-14285.1562,15683.1055,14940.9180,-14675.7812,0
0.105344,-7181.6406,-11316.8945,11182.1289,-13308.5938,0
0.109250,15121.5820,12936.5234,-13073.2422,-6915.5273,0
0.141000,-14026.8555,15019.0430,10267.4336,-4145.7383,0
0.144906,570.8008,-13815.4297,-1361.3047,6875.1992,0
0.148813,9145.0195,-15047.3633,14501.0273,-13350.4375,0
0.152719,-13565.9180,15175.2930,10631.0937,-3672.5859,0
0.156625,2946.7773,-14940.4297,-10740.1017,750.9882,0
0.160531,13162.5977,4960.4492,-7503.8567,-3007.6391,0
0.164438,-13659.6680,15065.9180,-4267.6118,-6766.2664,0
0.168344,2695.8008,-12815.4297,-1031.3668,-10524.8937,0
0.172250,11145.0195,943.8477,2204.8782,-13283.7811,0
0.188000,-13534.6680,15104.9805,15253.4180,-2213.2070,0
0.191906,9696.7773,-11940.4297,-10940.9180,-5754.4180,0
0.195812,9135.7422,12947.7539,10934.0820,-12112.2930,0
0.199719,-13714.3555,15034.6680,14878.4180,5639.4102,0
0.203625,6446.2891,-15941.4062,-14940.9180,4657.2614,0
0.207531,-4856.4453,8937.5000,6936.0352,-42.0823,0
0.211437,-13644.0430,15003.4180,15089.3555,-4741.4260,0
0.215344,6570.8008,-14816.8945,-11316.4062,-9440.7697,0
0.219250,-14872.5586,10929.1992,4923.8281,-12429.0743,0
0.235000,-13597.1680,15034.6680,15042.4805,1708.2148,0
0.238906,13572.2656,-12565.9180,-9440.4297,-3925.9453,0
0.242812,-14861.8164,-7061.5234,-1051.2695,-12052.9180,0
0.246719,-13620.6055,14870.6055,15214.3555,3201.2851,0
0.250625,6696.2891,15183.1055,-14316.8945,-10949.8000,0
0.254531,-12854.0039,-15083.0078,6940.4297,-11759.4847,0
0.258437,-13479.9805,14784.6680,15276.8555,-12569.1693,0
0.262344,8697.2656,-14815.4297,-11815.4297,-13378.8539,0
0.266250,3153.8086,6954.1016,952.1484,-13379.5001,0
0.281000,-13581.5430,13223.9453,-9306.9137,-4505.7228,0
0.284906,5821.7773,-3867.3826,259.9998,8924.3748,0
0.288812,5152.3438,11419.5896,13372.5585,-9817.2458,0
0.292719,-13487.7930,15669.3555,-10093.9840,-1625.6447,0
0.296625,8696.7773,1622.4416,80.9764,-7352.4413,0
0.300531,-4832.5195,2207.5602,5471.3745,-10000.4679,0
0.304437,-13183.1055,6120.8341,8482.0789,-11328.1037,0
0.308344,11447.2656,10034.1080,11492.7833,-12655.7394,0
0.312250,9151.8555,13947.3819,14503.4877,-13983.3752,0
0.313000,-13644.0430,14698.7305,15081.5430,-14238.2812,0
0.316906,8196.7773,15307.6172,-13190.9180,-430.1758,0
0.320812,-2850.0977,-1081.0547,-7050.7812,-2887.6953,0
0.324719,-13222.1680,14894.0430,15214.3555,-13980.4688,0
0.328625,12821.7773,-14566.4062,-13815.9180,-181.1523,0
0.332531,-12852.0508,14937.9883,2952.1484,11098.6328,0
0.336437,-13534.6680,15089.3555,15308.1055,-14199.2188,0
0.340344,2821.2891,-15066.8945,-11940.4297,-5306.1523,0
0.344250,-8818.3594,6938.4766,-9039.5508,-863.2812,0
0.360000,-13487.7930,15120.6055,14979.9805,-14058.5938,0
0.363906,1945.8008,-13066.8945,-13815.9180,-5180.6641,0
0.367812,13138.6719,14930.1758,-1050.7812,-879.3945,0
0.371719,-13479.9805,15034.6680,15198.7305,-13956.5430,0
0.375625,10446.7773,14558.1055,15933.5938,1945.3125,0
0.379531,11140.6250,-15063.9648,939.4531,3124.5117,0
0.383437,-13659.6680,15011.2305,15026.8555,-13808.1055,0
0.387344,7572.2656,-15816.4062,-15565.9180,4071.7773,0
0.391250,-8845.2148,-11056.6406,949.2188,13150.8789,0
0.406000,-13878.9062,-2836.9480,5378.5015,-13933.5938,0
0.409906,-2054.6875,-660.1226,6551.5107,-2429.6875,0
0.413812,7137.2070,1516.7027,7724.5199,7139.1602,0
0.417719,-13878.4180,3693.5281,8897.5291,-13979.9805,0
0.421625,3196.7773,5870.3535,10070.5384,2696.7773,0
0.425531,-833.9844,8047.1789,11243.5476,11150.3906,0
0.429437,-13519.0430,10224.0042,12416.5568,-13675.2930,0
0.433344,5822.2656,12400.8296,13589.5660,4196.2891,0
0.437250,13158.6914,14577.6550,14762.5752,-2856.9336,0
0.469000,-13479.9805,14979.9805,15136.2305,-13831.5430,0
0.472906,8945.8008,-11690.9180,-12441.4062,444.3359,0
0.476812,7131.8359,936.5234,12945.8008,15112.3047,0
0.480719,-13636.2305,14854.9805,15261.2305,-14089.8438,0
0.484625,4821.7773,14934.0820,-14316.4062,-804.1992,0
0.488531,-14853.0273,-15059.0820,8949.2188,1134.2773,0
0.492437,-13909.6680,14940.9180,15245.6055,-14065.9180,0
0.496344,5447.2656,-14691.8945,-12565.4297,2071.7773,0
0.500000,-13597.1680,15136.2305,15206.5430,-13745.6055,0
0.500250,11148.9258,-3060.0586,-7040.5273,-14847.6562,0
0.503906,5945.8008,15057.6172,-13815.9180,195.3125,0
0.507812,7139.1602,-13072.2656,8950.1953,-14855.9570,0
0.511719,-13659.6680,14940.9180,15245.6055,-13636.2305,0
0.515625,4446.7773,14682.6172,-12190.9180,4446.2891,0
0.519531,-14837.8906,-11073.7305,-1045.4102,11147.9492,0
0.523438,-13503.4180,14901.8555,15261.2305,-13667.4805,0
0.527344,7697.2656,14058.1055,-10440.4297,7196.7773,0
0.531250,-14847.6562,2936.5234,-5054.6875,-4867.6758,0
0.563000,-13495.6055,15058.1055,-9971.1250,2322.5117,0
0.566906,4194.8242,15432.1289,11350.9453,-259.8594,0
0.570812,-6871.0938,12920.4102,12822.8086,-11469.5898,0
0.574719,-13964.3555,14979.9805,-8431.4140,6946.3125,0
0.578625,3696.7773,-15691.8945,7156.6685,-5035.6445,0
0.582531,-8841.3086,-13072.2656,9251.4823,-7141.3574,0
0.586437,-13581.5430,14948.7305,11346.2960,-9247.0703,0
0.590344,6697.2656,15557.6172,13441.1098,-11352.7832,0
0.594000,-13362.7930,-3747.8399,15401.8555,-13323.7305,0
0.594250,9158.2031,-5067.8711,13547.8556,-12026.4806,0
0.597906,7321.2891,-412.0919,-13566.8945,6945.8008,0
0.601812,5142.0898,4562.0311,12934.0820,-4859.8633,0
0.605719,-13370.6055,9536.1541,15175.2930,-13620.6055,0
0.609625,12696.7773,14510.2772,-12316.4062,8571.7773,0
0.613531,-10847.6562,15276.9141,12933.5938,15145.9961,0
0.617437,-13558.1055,9525.6367,14956.5430,-13683.1055,0
0.621344,5571.2891,14171.4180,-13691.4062,3945.8008,0
0.625250,-12855.9570,14348.6055,-11062.9883,-14872.5586,0
0.656000,-13854.9805,14917.4805,-9390.6442,4490.9958,0
0.659906,4072.2656,15683.5938,-13220.3320,552.4806,0
0.663812,9147.4609,-11063.4766,10762.7926,-11768.5741,0
0.667719,-13526.8555,15136.2305,-9052.7340,-1001.4845,0
0.671625,9571.7773,-14317.3828,5327.9490,-3853.4960,0
0.675531,15141.1133,-9064.4531,10239.3392,-6749.1862,0
0.679437,-13800.2930,14987.7930,11773.4530,-8994.8924,0
0.683344,4196.2891,14558.1055,13307.5668,-11240.5986,0
0.687250,-12861.3281,8933.5938,14841.6806,-13486.3049,0
0.688000,-13925.2930,14792.4805,15136.2305,-13917.4805,0
0.691906,1571.2891,12183.1055,15934.0820,1695.8008,0
0.695812,-6833.9844,12940.4297,959.4727,15148.4375,0
0.699719,-13511.2305,14964.3555,15214.3555,-13651.8555,0
0.703625,3696.2891,14308.1055,15933.1055,195.3125,0
0.707531,-6854.9805,-9062.5000,-3057.6172,7134.7656,0
0.711437,-13558.1055,15198.7305,15222.1680,-13737.7930,0
0.715344,7321.2891,-15442.3828,-14316.8945,3446.2891,0
0.719250,-4844.7266,2930.6641,-3065.9180,7148.9258,0
0.735000,-13308.1055,15183.1055,3068.9887,-13511.2305,0
0.738906,13571.7773,-12566.8945,4590.5429,12447.2656,0
0.742812,13122.5586,-1072.2656,6112.0971,11127.4414,0
0.746719,-13940.9180,14870.6055,7633.6513,-13972.1680,0
0.750625,3695.8008,-15816.8945,9155.2055,4571.7773,0
0.754531,-14870.1172,-7069.3359,10676.7598,-851.5625,0
0.758437,-13737.7930,14909.6680,12198.3140,-13479.9805,0
0.762344,4196.2891,14058.5938,13719.8682,7946.2891,0
0.766250,1145.5078,14953.6133,13754.6681,-4851.5625,0
0.781000,-13683.1055,15190.9180,15308.1055,-13690.9180,0
0.784906,2695.8008,15933.5938,-11565.4297,2570.3125,0
0.788812,9154.7852,2944.3359,4953.6133,-860.3516,0
0.792719,-13714.3555,15136.2305,15362.7930,-13894.5312,0
0.796625,70.8008,-15065.4297,-12690.9180,-1429.6875,0
0.800531,-2854.4922,8958.0078,-15036.6211,-8856.9336,0
0.804437,-14027.3438,14792.4805,15198.7305,-14074.2188,0
0.808344,-2180.1758,11058.1055,-14566.4062,-2055.1758,0
0.812250,-10864.7461,-11050.7812,8953.6133,11130.3711,0
0.828000,-13651.8555,15245.6055,15448.7305,-13792.9688,0
0.831906,4321.7773,12308.1055,-11815.9180,-429.1992,0
0.835812,-8867.1875,2946.2891,-3051.7578,15140.1367,0
0.839719,-14190.9180,14831.5430,15112.7930,-14105.4688,0
0.843625,320.8008,13308.5938,-15065.4297,-3679.6875,0
0.847531,-8865.7227,-11066.4062,6956.5430,-10875.0000,0
0.851437,-14026.8555,14706.5430,15019.0430,-14183.5938,0
0.855344,1195.8008,14432.6172,15183.1055,-1931.1523,0
0.859250,7140.1367,8917.9688,-3044.9219,-4886.7188,0
0.891000,-13714.3555,14870.6055,15511.2305,-13933.1055,0
0.894906,5821.2891,15183.1055,-10190.9180,2445.8008,0
0.898813,11122.5586,10923.8281,12950.6836,3124.0234,0
0.902719,-13878.4180,14917.4805,15347.1680,-13964.3555,0
0.906625,5070.8008,-15317.3828,-9815.4297,1695.3125,0
0.910531,15140.6250,-9075.6836,-11043.9453,-4866.6992,0
0.914438,-13800.2930,14800.2930,14995.6055,-14011.7188,0
0.918344,2195.8008,11556.6406,15184.5703,-2805.6641,0
0.922250,-8869.6289,-7081.5430,4959.9609,-10883.3008,0
0.938000,-14112.7930,15034.6680,-6781.1133,80.4180,0
0.941906,70.8008,-13816.4062,4110.0859,-7604.2461,0
0.945812,-14851.0742,8942.3828,12061.6992,-13745.1094,0
0.949719,-13300.2930,15175.2930,-15131.8555,-7875.8398,0
0.953625,8571.7773,-15691.4062,-10415.1321,-10960.6352,0
0.957531,11140.1367,-1056.1523,-3859.9079,-11735.6848,0
0.961437,-13909.6680,14847.1680,2695.3164,-12510.7344,0
0.965344,4071.2891,12807.6172,9250.5406,-13285.7840,0
0.969000,-13589.3555,11045.3047,15386.2305,-14011.2305,0
0.969250,13138.1836,10924.8047,13957.3868,-13054.0743,0
0.972906,8071.7773,11835.3533,-6939.4531,944.3359,0
0.976812,-14830.0781,12808.1617,10961.4258,-6881.8359,0
0.980719,-13495.6055,13780.9700,15198.7305,-14035.1562,0
0.984625,3071.2891,14753.7784,-13940.4297,-3180.6641,0
0.988531,-854.9805,-11289.3789,-9036.6211,9114.2578,0
0.992437,-13714.3555,3126.5078,15159.6680,-14332.0312,0
0.996344,6197.2656,14080.8711,-14065.4297,-4429.6875,0
1.000250,-4836.4258,-12966.2031,-13049.8047,7116.2109,0
1.031000,-13229.9805,15112.7930,15253.4180,-14104.9805,0
1.034906,13071.7773,-13816.8945,-9064.9414,2069.8242,0
1.038812,3142.5781,-15061.5234,2956.0547,-6890.1367,0
1.042719,-13644.0430,14886.2305,15206.5430,-14300.7812,0
1.046625,7571.2891,13683.5938,-10315.4297,-2805.6641,0
1.050531,-14867.1875,926.7578,2935.5469,-6899.4141,0
1.054437,-13667.4805,14862.7930,15159.6680,-14300.7812,0
1.058344,3195.3125,12307.1289,-12316.4062,-5931.1523,0
1.062250,-2854.4922,12936.0352,-1048.3398,1113.7695,0
1.063000,-13815.9180,14956.5430,15276.8555,-14410.1562,0
1.066906,3946.7773,10682.6172,-10064.9414,-5180.6641,0
1.070812,7129.8828,14922.8516,6949.7070,-8897.4609,0
1.074719,-13870.6055,14878.4180,15354.9805,-14160.1562,0
1.078625,2319.8242,-14316.8945,-9690.9180,-1056.1523,0
1.082531,-2878.4180,-13069.8242,-7057.6172,7094.7266,0
1.086437,-14199.2188,14792.4805,14940.9180,-14566.4062,0
1.090344,-1179.1992,13558.1055,-14440.4297,-8931.1523,0
1.094250,15139.6484,6935.0586,-13048.3398,1116.2109,0
1.110000,-13878.4180,14948.7305,15190.9180,-14136.7188,0
1.113906,2821.7773,12683.1055,-12315.9180,-3555.1758,0
1.117812,-8838.8672,-15052.7344,-1032.7148,-2863.7695,0
1.121719,-13815.9180,14933.1055,15479.9805,-13957.0312,0
1.125625,1071.2891,12182.1289,-8689.9414,-2430.6641,0
1.129531,-2869.6289,-5082.5195,14944.8242,-10890.1367,0
1.133437,-14128.4180,14761.2305,15042.4805,-14308.5938,0
1.137344,819.8242,14182.6172,-12566.4062,-4181.1523,0
1.141250,-12884.2773,-3084.9609,-11067.8711,-902.3438,0
1.156000,-13847.1680,14667.4805,15128.4180,-14425.7812,0
1.159906,2195.3125,12308.1055,-11065.4297,-4806.1523,0
1.163812,5137.2070,8932.6172,-5042.4805,-889.6484,0
1.167719,-13597.1680,14776.8555,15409.6680,-14089.3555,0
1.171625,7571.7773,15434.5703,-10690.4297,320.3125,0
1.175531,9136.2305,938.9648,6944.8242,7115.7227,0
1.179437,-13808.1055,14784.6680,15136.2305,-14207.0312,0
1.183344,5070.8008,11557.6172,-11440.4297,-3681.1523,0
1.187250,-10866.2109,12937.5000,8958.4961,5102.0508,0
1.203000,-13706.5430,14964.3555,15339.3555,-14316.4062,0
1.206906,4571.2891,10808.1055,-10315.4297,-5430.6641,0
1.210812,-850.5859,-9046.3867,-15045.8984,-12882.3242,0
1.214719,-13862.7930,14979.9805,15261.2305,-14300.7812,0
1.218625,2570.3125,12933.1055,-13066.8945,-5806.6406,0
1.222531,5128.9062,14945.8008,-3055.1758,1098.1445,0
1.226437,-13519.0430,15136.2305,15479.9805,-14144.5312,0
1.230344,1069.3359,12807.1289,-11941.4062,-8182.6172,0
1.234250,9121.0938,6914.0625,-7048.3398,9091.3086,0
1.250000,-13940.9180,14839.3555,15284.6680,-14464.8438,0
1.253906,4820.8008,-15941.8945,-11815.9180,-7307.1289,0
1.257812,-12869.1406,2932.6172,4947.7539,11092.7734,0
1.261719,-13722.1680,15042.4805,15222.1680,-14433.5938,0
1.265625,3320.3125,13932.6172,-15816.4062,-8056.1523,0
1.269531,-855.9570,8940.4297,2954.5898,7116.2109,0
1.273438,-13792.4805,15003.4180,15237.7930,-14378.9062,0
1.277344,3446.7773,-14691.8945,-9939.4531,-6931.1523,0
1.281250,-8860.8398,-15081.5430,2950.6836,-10904.7852,0
1.313000,-13972.1680,5339.8777,-12680.0430,-9077.3672,0
1.316906,2946.2891,7852.3556,-6707.6054,-7627.7734,0
1.320812,7144.5312,10364.8336,12759.3086,-13858.1406,0
1.324719,-13785.1562,12877.3115,-11289.4609,-6512.2695,0
1.328625,-54.6875,10319.0431,-10736.8952,14390.2530,0
1.332531,5136.7188,-9852.6759,-7528.2843,7021.4689,0
1.336437,-13558.1055,13260.2539,-4319.6733,-347.3152,0
1.340344,3570.3125,14972.0117,-1111.0624,-7716.0993,0
1.344250,-8865.2344,10985.1759,2097.5486,-14273.6563,0
1.360000,-14019.0430,14979.9805,15034.6680,-8831.6640,0
1.363906,1821.7773,15183.5938,-14315.9180,3147.5976,0
1.367812,11145.5078,-13063.9648,-11048.3398,-14986.4844,0
1.371719,-13800.2930,14776.8555,15308.1055,-13191.0586,0
1.375625,7320.8008,14058.1055,-8189.9414,8535.9235,0
1.379531,-2876.9531,10932.6172,951.6602,2674.3687,0
1.383437,-13902.3438,14815.9180,15222.1680,-3187.1861,0
1.387344,-180.1758,10932.6172,-12565.4297,-9048.7409,0
1.391000,-13402.3438,14972.1680,15284.6680,-14535.1562,0
1.391250,-10841.3086,10944.8242,4964.8438,-14568.6562,0
1.394906,-805.1758,10683.1055,14808.5938,-15058.5938,0
1.398813,15139.6484,8945.8008,-3037.5977,-918.4570,0
1.402719,-13910.1562,15011.2305,15144.0430,-14816.4062,0
1.406625,-1179.6875,12183.1055,15559.0820,-15308.5938,0
1.410531,-2858.8867,2940.4297,2946.2891,-4926.2695,0
1.414438,-13550.2930,15081.5430,15386.2305,-14699.2188,0
1.418344,7820.8008,13306.6406,-8690.9180,-9682.6172,0
1.422250,-2854.9805,14926.2695,6954.1016,7081.0547,0
1.438000,-13526.8555,14854.9805,15323.7305,-14550.7812,0
1.441906,8572.2656,13558.1055,-11064.4531,-7932.1289,0
1.445812,-10860.3516,-9070.8008,2952.6367,-10931.6406,0
1.449719,-13800.2930,14847.1680,15198.7305,-14839.8438,0
1.453625,5571.2891,15058.5938,-9564.9414,-9182.1289,0
1.457531,-14873.0469,12921.8750,-15051.2695,15071.7773,0
1.461437,-14073.7305,14589.3555,15073.7305,-14996.0938,0
1.465344,3321.2891,11183.5938,-14316.8945,-11432.6172,0
1.469250,11143.0664,12941.4062,-5069.3359,-2914.5508,0
1.485000,-13659.6680,14940.9180,14987.7930,-14574.2188,0
1.488906,5446.7773,-13191.4062,-10439.9414,-11057.6172,0
1.492812,3141.1133,-11062.9883,941.8945,15074.7070,0
1.496719,-13870.6055,15073.7305,15120.6055,-14863.2812,0
1.500625,1695.8008,14182.6172,-14066.4062,-14183.5938,0
1.504531,15152.3438,10916.0156,10945.3125,-4923.3398,0
1.508437,-13261.2305,14769.0430,15269.0430,-14535.1562,0
1.512344,9821.2891,-14191.8945,-11190.4297,-8307.1289,0
1.516250,-6859.8633,-15077.1484,960.9375,-12911.6211,0
1.531000,-13823.7305,14878.4180,15378.4180,-14707.0312,0
1.534906,2320.8008,15183.5938,-11315.4297,-10307.6172,0
1.538812,-8844.7266,2944.3359,12963.3789,-4911.6211,0
1.542719,-13855.4688,14823.7305,15222.1680,-14675.7812,0
1.546625,-2679.6875,9932.6172,-15440.9180,-13808.1055,0
1.550531,-6857.9102,14938.9648,950.6836,-2910.1562,0
1.554437,-13714.3555,14995.6055,15097.1680,-14621.0938,0
1.558344,5196.2891,11307.6172,-13565.4297,-10682.1289,0
1.562250,-2855.4688,-5049.8047,12947.7539,13082.0312,0
1.578000,-13534.6680,15183.1055,15198.7305,-14769.5312,0
1.581906,6196.2891,15433.1055,-11564.9414,-12682.6172,0
1.585812,-14816.8945,6956.5430,978.5156,5101.5625,0
1.589719,-13167.4805,15300.2930,15472.1680,-14496.0938,0
1.593625,1820.3125,13683.1055,-13565.9180,-15809.0820,0
1.597531,-10855.9570,-15056.1523,947.2656,-14932.6172,0
1.601437,-13495.6055,15011.2305,15261.2305,-14714.8438,0
1.605344,7071.2891,11806.1523,-11565.4297,-11308.1055,0
1.609250,-6842.7734,-13092.2852,956.5430,13079.1016,0
1.625000,-13542.4805,802.3230,15339.3555,-14746.0938,0
1.628906,4070.8008,4248.4064,-11940.9180,-15184.0820,0
1.632812,-10854.4922,7694.4897,944.8242,7068.3594,0
1.636719,-13472.1680,11140.5731,15245.6055,-14644.5312,0
1.640625,9821.7773,14586.6565,-12690.9180,-11557.6172,0
1.644531,-4859.3750,-11849.3945,2952.1484,-8912.5977,0
1.648438,-13604.9805,-2363.4180,15284.6680,-14707.0312,0
1.652344,9446.2891,13511.3242,-10065.4297,-9307.6172,0
1.656250,9126.9531,13250.1055,10949.2188,-6931.6406,0
1.688000,-13800.2930,14894.0430,15388.4727,-8060.7851,0
1.691906,4321.2891,15058.5938,15015.7500,10446.0508,0
1.695812,9155.2734,-15061.0352,13055.1367,-14012.8125,0
1.699719,-13542.4805,14823.7305,-8579.6523,-8841.0234,0
1.703625,6322.2656,12307.6172,9020.8250,-1078.1634,0
1.707531,-6842.2852,-9071.7773,9787.0685,-2767.2033,0
1.711437,-13495.6055,14894.0430,10553.3120,-4456.2431,0
1.715344,8321.7773,13557.1289,11319.5556,-6145.2829,0
1.719250,15149.9023,-9077.1484,12085.7991,-7834.3227,0
1.735000,-13651.8555,3208.7819,15175.2930,-14644.5312,0
1.738906,6947.2656,6255.8877,-9564.9414,-8307.1289,0
1.742812,-8831.0547,9302.9934,-5041.0156,9093.2617,0
1.746719,-13534.6680,12350.0991,15237.7930,-14628.9062,0
1.750625,4821.7773,14633.2617,-11815.4297,-12932.6172,0
1.754531,-8843.7500,12501.8164,-15042.4805,13079.5898,0
1.758437,-13667.4805,9899.3945,15190.9180,-14808.5938,0
1.762344,3070.8008,14879.0430,-14065.4297,-12182.1289,0
1.766250,1131.3477,12167.5586,4959.4727,9088.8672,0
1.781000,-13753.4180,14831.5430,15401.8555,-11939.0235,0
1.784906,3570.3125,13807.1289,-10565.9180,2442.9686,0
1.788812,-4864.2578,8929.6875,8951.6602,-11487.6560,0
1.792719,-13847.1680,14964.3555,15284.6680,-11001.5235,0
1.796625,1070.3125,13558.1055,-12690.4297,-4106.0548,0
1.800531,11136.2305,10931.1523,958.0078,-5403.8493,0
1.804437,-13839.3555,14862.7930,15276.8555,-8355.0928,0
1.808344,3946.2891,15933.1055,-9689.9414,-11306.3364,0
1.812250,-6864.7461,-9063.4766,10958.9844,-14257.5800,0
1.813000,-13917.4805,14979.9805,15401.8555,-14824.2188,0
1.816906,3820.8008,-15191.4062,-9315.4297,-9432.1289,0
1.820812,-14873.0469,-7066.4062,-13044.9219,5073.2422,0
1.824719,-13909.6680,14839.3555,15323.7305,-14769.5312,0
1.828625,5446.2891,14183.1055,-8189.4531,-8432.1289,0
1.832531,11126.4648,-3065.9180,-13042.4805,15075.1953,0
1.836437,-13714.3555,14948.7305,15339.3555,-14722.6562,0
1.840344,6696.2891,13807.6172,-10690.9180,-11058.1055,0
1.844250,-4861.3281,8931.6406,10944.8242,-2933.1055,0
1.860000,-14027.3438,15128.4180,15151.8555,-15042.9688,0
1.863906,-2180.1758,15182.1289,-14316.4062,15315.9180,0
1.867812,-14874.0234,920.8984,-1048.3398,9057.6172,0
1.871719,-13878.4180,14862.7930,15229.9805,-14941.4062,0
1.875625,3697.2656,13183.5938,-11064.4531,-14307.6172,0
1.879531,1138.6719,-7069.8242,8951.6602,-928.2227,0
1.883437,-14042.4805,14589.3555,14854.9805,-15175.7812,0
1.887344,2945.8008,12557.6172,-14941.4062,15191.4062,0
1.891250,-14857.9102,-9064.4531,-1055.6641,9072.2656,0
1.906000,-13519.0430,15019.0430,15261.2305,-14753.9062,0
1.909906,8446.7773,14933.5938,-12565.9180,-11807.6172,0
1.913812,9146.9727,8937.9883,10947.7539,-10913.5742,0
1.917719,-13370.6055,15019.0430,15362.7930,-14707.0312,0
1.921625,9445.8008,-14692.3828,-8940.9180,-12433.1055,0
1.925531,-6861.3281,-1069.3359,12946.7773,13075.6836,0
1.929437,-13714.3555,14987.7930,15167.4805,-14792.9688,0
1.933344,4697.2656,14683.1055,-13439.9414,-14307.1289,0
1.937250,-12844.2383,6918.9453,-13035.6445,-14910.1562,0
1.953000,-13667.4805,14847.1680,15034.6680,-14824.2188,0
1.956906,7945.8008,-12066.8945,-11940.4297,-10433.1055,0
1.960812,-2865.7227,-15078.1250,-5051.2695,15062.9883,0
1.964719,-13706.5430,15034.6680,15331.5430,-14785.1562,0
1.968625,5447.2656,-14066.8945,-9065.4297,-11308.1055,0
1.972531,-14847.1680,-13068.3594,-1040.5273,-14936.5234,0
1.976437,-13690.9180,14972.1680,15354.9805,-15019.5312,0
1.980344,5946.2891,-15316.4062,-11315.4297,-14933.5938,0
1.984250,15152.3438,-5050.7812,-7030.2734,-2924.3164,0
2.000000,-13503.4180,14956.5430,15417.4805,-14847.6562,0
2.003906,5571.2891,11933.1055,-13065.4297,-15058.5938,0
2.007812,11142.0898,-3057.6172,10958.0078,-928.7109,0
2.011719,-13714.3555,14933.1055,15214.3555,-14902.3438,0
2.015625,3947.2656,11808.1055,-13440.4297,-14932.6172,0
2.019531,3162.1094,10944.3359,-11029.2969,15090.8203,0
2.023438,-13636.2305,15050.2930,15401.8555,-14769.5312,0
2.027344,3820.8008,14557.1289,-11940.9180,-14058.1055,0
2.031250,11144.5312,-5075.6836,14950.6836,15074.7070,0
2.063000,-13878.4180,14886.2305,-11504.5078,-14176.1055,0
2.066906,696.7773,-15066.4062,-3086.9726,-13141.6523,0
2.070812,7144.5312,-13068.8477,12866.5742,-12124.9687,0
2.074719,-13909.6680,14964.3555,-10996.4180,14129.3125,0
2.078625,4696.7773,-14066.4062,-14694.1283,-3221.0054,0
2.082531,11136.7188,12926.7578,-10984.0799,-6204.7042,0
2.086437,-13854.9805,14901.8555,-7274.0315,-9188.4029,0
2.090344,2695.8008,15432.6172,-3563.9831,-12172.1017,0
2.094250,-6855.9570,-3075.1953,146.0653,-15010.8437,0
2.110000,-13659.6680,14995.6055,15104.9805,-10323.1250,0
2.113906,5321.7773,-14316.4062,15808.5938,-7680.6797,0
2.117812,-2852.0508,-15068.8477,-7052.7344,-14670.2656,0
2.121719,-13495.6055,15065.9180,15394.0430,-13340.7070,0
2.125625,10071.2891,-13691.8945,-11315.9180,-9064.1857,0
2.129531,15142.5781,6925.2930,-15039.0625,-10460.1227,0
2.133437,-13534.6680,14769.0430,15495.6055,-11856.0597,0
2.137344,5070.3125,12433.1055,-9566.4062,-13251.9967,0
2.141000,-13425.2930,15175.2930,15519.0430,-14558.5938,0
2.141250,-4860.3516,940.4297,-11056.6406,-14190.5000,0
2.144906,12447.7539,-13316.4062,-7065.9180,-8807.1289,0
2.148813,11161.1328,-15056.1523,-1043.9453,5088.8672,0
2.152719,-13292.4805,14987.7930,15425.2930,-14558.5938,0
2.156625,14572.2656,-14191.8945,-5439.4531,-5057.1289,0
2.160531,-12858.8867,-3072.2656,2950.6836,5054.6875,0
2.164438,-13722.1680,14831.5430,15159.6680,-15113.2812,0
2.168344,5696.7773,13058.1055,-13690.9180,-14933.1055,0
2.172250,-14840.3320,10932.1289,-13039.0625,15074.2188,0
2.188000,-13487.7930,14917.4805,15487.7930,-14753.9062,0
2.191906,8197.7539,14308.1055,-9940.4297,-9682.1289,0
2.195812,-6832.5195,926.7578,-13046.8750,-2912.5977,0
2.199719,-13323.7305,14972.1680,15331.5430,-14761.7188,0
2.203625,8196.2891,-14691.8945,-10315.4297,-11807.1289,0
2.207531,13147.4609,-3068.8477,-1033.2031,-8905.2734,0
2.211437,-13581.5430,14909.6680,15401.8555,-14503.9062,0
2.215344,4570.3125,-15441.8945,-8564.9414,-6806.6406,0
2.219250,-4875.0000,-3067.8711,-9042.9688,1085.4492,0
2.235000,-13839.3555,15042.4805,15323.7305,-14535.1562,0
2.238906,3945.8008,-14941.8945,-10315.4297,-9057.6172,0
2.242812,-4857.4219,-11069.3359,-7039.0625,-8909.6680,0
2.246719,-13667.4805,14808.1055,15261.2305,-14691.4062,0
2.250625,4945.8008,11807.6172,-12815.9180,-11432.1289,0
2.254531,-2850.0977,12931.1523,-3041.0156,1089.8438,0
2.258437,-13675.2930,14948.7305,15276.8555,-14621.0938,0
2.262344,2946.2891,15183.1055,-14566.4062,-12558.1055,0
2.266250,1151.3672,2942.8711,12949.2188,9082.5195,0
2.281000,-13519.0430,15097.1680,15276.8555,-14738.2812,0
2.284906,4070.8008,14057.6172,-13190.9180,-14559.0820,0
2.288812,3126.9531,-11084.4727,6946.7773,-14952.6367,0
2.292719,-13831.5430,14690.9180,15315.9180,-15058.5938,0
2.296625,5194.8242,12933.1055,-7065.9180,15564.9414,0
2.300531,11118.1641,2939.4531,10941.4062,1043.9453,0
2.304437,-13815.9180,15120.6055,15229.9805,-15050.7812,0
2.308344,1694.8242,-15442.3828,-15191.4062,-15308.5938,0
2.312250,-8880.3711,-11080.5664,-13049.3164,15066.8945,0
2.328000,-13823.7305,14729.9805,15401.8555,-14753.9062,0
2.331906,6446.7773,12683.1055,-7564.9414,-10932.6172,0
2.335812,-12853.5156,-11064.4531,14959.9609,7075.1953,0
2.339719,-13706.5430,14800.2930,15198.7305,-14902.3438,0
2.343625,7446.7773,14307.6172,-12440.9180,-12933.1055,0
2.347531,11139.6484,-3082.5195,-1049.8047,-10932.1289,0
2.351437,-13784.6680,14792.4805,15386.2305,-14902.3438,0
2.355344,3946.2891,15933.5938,-9314.9414,14940.9180,0
2.359250,7149.9023,-5058.5938,-1027.8320,-2933.1055,0
2.391000,-13589.3555,14878.4180,-11686.1836,-11790.9961,0
2.394906,8071.7773,14307.6172,505.8203,10418.2109,0
2.398813,1138.1836,-3078.1250,12488.9179,-14473.8750,0
2.402719,-13683.1055,14964.3555,-10769.4101,-10029.1015,0
2.406625,3445.8008,-14816.4062,5207.5893,8503.4063,0
2.410531,-2839.8438,-5051.7578,7771.7925,2572.7025,0
2.414438,-13456.5430,15058.1055,10335.9956,-3358.0013,0
2.418344,8322.2656,-15691.8945,12900.1988,-9288.7051,0
2.422250,15149.9023,-9079.1016,13844.9490,-14581.7812,0
2.438000,-13690.9180,14878.4180,-11832.1328,-15079.3281,0
2.441906,8197.2656,-10566.4062,2346.5586,-13065.6758,0
2.445812,-2851.0742,-1073.2422,12863.1211,-13929.5937,0
2.449719,-13722.1680,15026.8555,-10024.4609,-9736.6719,0
2.453625,2696.2891,15683.1055,1122.2952,-14947.7190,0
2.457531,-4838.3789,-13059.0820,2864.1401,-14977.8733,0
2.461437,-13401.8555,15073.7305,4605.9849,-15008.0276,0
2.465344,5445.8008,-15066.8945,6347.8297,-15038.1818,0
2.469250,13131.8359,14925.2930,8089.6746,-14993.9063,0
2.500000,-14050.2930,14128.5352,-6793.5743,2124.7227,0
2.503906,1945.8008,-10425.0001,10789.6681,-1077.6455,0
2.507812,-4846.6797,10284.4337,15349.6680,-5507.6594,0
2.511719,-13542.4805,-10343.5548,-5881.9142,-9937.6734,0
2.515625,2195.8008,-11729.8437,2573.8477,-14367.6874,0
2.516000,-13558.1055,-11334.1250,4004.0508,-14792.9688,0
2.519531,9138.1836,-5271.7502,7286.1556,-12207.2109,0
2.519906,5320.8008,-4609.0574,7552.2854,-11932.6172,0
2.523438,-13753.4180,1631.3001,10058.3414,1637.9765,0
2.523813,-4869.1406,2293.9930,10324.4712,3079.1016,0
2.527344,4570.8008,8534.3504,12830.5271,-13218.5000,0
2.527719,-14003.9062,9197.0433,13096.6570,-14949.2188,0
2.531250,-10854.4922,14847.5742,13873.9177,12862.9062,0
2.531625,-55.1758,14625.5273,11546.8552,15816.4062,0
2.535531,-8864.7461,8883.0857,-8529.9414,13062.9883,0
2.539438,-13620.6055,-6879.8435,-3472.7537,-14878.9062,0
2.543344,1319.8242,10604.4333,10876.2302,15689.9414,0
2.547250,-857.4219,-9760.5466,-12114.2383,-12950.6836,0
2.563000,-13729.9805,14800.2930,15479.9805,-14964.8438,0
2.566906,1320.8008,14307.6172,-9314.9414,-14308.5938,0
2.570812,15148.4375,14929.1992,4967.2852,-14936.0352,0
2.574719,-13855.4688,15042.4805,15456.5430,-14949.2188,0
2.578625,-805.6641,15058.1055,-9190.4297,-15934.0820,0
2.582531,-4885.2539,-9060.0586,955.5664,7061.0352,0
2.586437,-14144.5312,14878.4180,15214.3555,-15097.6562,0
2.590344,-553.7109,13433.5938,-11189.4531,14691.4062,0
2.594250,7134.7656,8936.5234,-1035.1562,-943.3594,0
2.610000,-13995.6055,14839.3555,15354.9805,-15144.5312,0
2.613906,1320.8008,14933.1055,-11565.4297,-15183.1055,0
2.617812,-853.0273,-11070.3125,-15035.6445,15077.1484,0
2.621719,-13620.6055,15112.7930,15464.3555,-14792.9688,0
2.625625,5071.2891,-13191.4062,-7064.4531,-13058.1055,0
2.629531,-10857.4219,2932.1289,6959.9609,-6929.1992,0
2.633437,-13815.9180,14956.5430,15308.1055,-14964.8438,0
2.637344,3695.8008,-14441.8945,-10190.9180,13564.9414,0
2.641250,1130.8594,4924.8047,-3052.7344,13043.9453,0
2.656000,-13604.9805,14800.2930,15237.7930,-15113.2812,0
2.659906,9446.2891,13558.5938,-10065.4297,-15683.5938,0
2.663812,-6863.2812,-15066.4062,-5040.5273,9065.4297,0
2.667719,-13769.0430,14940.9180,15237.7930,-14964.8438,0
2.671625,3696.2891,-14066.8945,-13315.4297,14690.4297,0
2.675531,5145.9961,-1062.9883,4965.8203,-8939.9414,0
2.679437,-13597.1680,15144.0430,15597.1680,-14957.0312,0
2.683344,6821.2891,-12066.4062,-8064.9414,-15058.5938,0
2.687250,-10833.4961,-1063.9648,4970.2148,-10911.6211,0
2.703000,-13308.1055,15136.2305,15425.2930,-14667.9688,0
2.706906,2445.3125,-14191.4062,-12315.4297,13315.4297,0
2.710812,7139.1602,8951.1719,8962.8906,13055.6641,0
2.714719,-13706.5430,15151.8555,15511.2305,-15019.5312,0
2.718625,319.8242,13933.1055,-11191.4062,15065.4297,0
2.722531,9137.2070,927.7344,-5055.6641,-14945.3125,0
2.726437,-13683.1055,14886.2305,15229.9805,-15011.7188,0
2.730344,4446.2891,15058.1055,-8689.9414,-13432.6172,0
2.734250,11146.4844,-7052.7344,10954.5898,-14912.5977,0
2.750000,-13690.9180,15120.6055,15292.4805,-14636.7188,0
2.753906,5446.7773,15058.1055,-8939.9414,-10307.6172,0
2.757812,-14855.9570,-13054.6875,-15047.8516,15078.1250,0
2.761719,-13808.1055,15128.4180,15237.7930,-14808.5938,0
2.765625,2571.2891,15433.5938,-10314.9414,-15683.1055,0
2.769531,13145.0195,14946.2891,-15038.5742,7076.1719,0
2.773438,-13573.7305,15081.5430,15362.7930,-14808.5938,0
2.777344,5570.8008,-15066.8945,-8440.4297,-12433.1055,0
2.781250,3128.4180,12928.2227,-1041.5039,3063.9648,0
2.813000,-13886.2305,15042.4805,7099.7858,12580.9180,0
2.816906,2445.3125,-13691.8945,7764.4618,-5879.0352,0
2.820812,11120.6055,8926.7578,8429.1379,-14120.1562,0
2.824719,-14026.8555,15065.9180,9093.8139,-8411.0313,0
2.828625,1320.3125,-14441.4062,9758.4900,-12978.1320,0
2.832531,13139.6484,14948.7305,10423.1660,-13528.5383,0
2.836437,-13597.1680,15097.1680,11087.8421,-14078.9446,0
2.840344,7322.7539,-15190.4297,11752.5181,-14629.3509,0
2.844250,7146.4844,6950.6836,12417.1941,-15098.9688,0
2.860000,-13870.6055,14972.1680,15097.1680,-15723.0937,0
2.863906,7447.2656,-14690.9180,-11940.4297,-14891.7187,0
2.867812,7157.7148,-1049.8047,-13053.7109,-14240.1406,0
2.871719,-13698.7305,15011.2305,15104.9805,-10094.1602,0
2.875625,445.8008,15183.1055,-12315.4297,-7093.5059,0
2.879531,-841.7969,-15066.8945,-9035.6445,-8988.1388,0
2.883437,-13581.5430,14847.1680,15315.9180,-10882.7718,0
2.887344,5321.7773,14308.1055,-12565.4297,-12777.4048,0
2.891000,-13675.2930,15081.5430,15206.5430,-14550.7812,0
2.891250,3142.5781,-11064.9414,14955.0781,-14247.1563,0
2.894906,3820.8008,-14315.9180,-13690.4297,-9806.6406,0
2.898813,5133.7891,12939.4531,-15040.0391,7103.5156,0
2.902719,-13761.2305,14854.9805,15253.4180,-14371.0938,0
2.906625,6195.8008,14432.6172,-9440.4297,-3681.6406,0
2.910531,-14864.2578,10921.3867,-1039.5508,-909.1797,0
2.914438,-13698.7305,14784.6680,15433.1055,-14457.0312,0
2.918344,3444.8242,-14691.4062,-10190.9180,-5307.1289,0
2.922250,13114.7461,-13071.2891,12950.1953,-6924.3164,0
2.938000,-14066.4062,14917.4805,15276.8555,-14714.8438,0
2.941906,-54.1992,15558.1055,-11690.4297,-8181.6406,0
2.945812,-14855.4688,6929.6875,12962.4023,-14897.9492,0
2.949719,-13761.2305,15034.6680,15550.2930,-14246.0938,0
2.953625,7196.7773,-15817.3828,-4564.9414,-3181.6406,0
2.957531,3127.9297,-3072.2656,-5058.1055,-8912.5977,0
2.961437,-13831.5430,15042.4805,15081.5430,-14488.2812,0
2.965344,2070.3125,-14690.9180,-12064.9414,-8306.6406,0
2.969250,-863.2812,2946.2891,4960.9375,-10894.5312,0
3.000000,-13886.2305,14917.4805,15261.2305,-8989.4531,0
3.003906,4196.2891,13308.1055,-9940.4297,-5377.1875,0
3.007812,5128.4180,-15067.8711,-7054.6875,-12736.0938,0
3.011719,-13776.8555,15026.8555,15214.3555,-5263.2226,0
3.015625,4695.3125,-14566.8945,-10940.9180,3728.7891,0
3.019531,-4867.6758,10939.4531,-1046.3867,795.0150,0
3.023438,-13784.6680,15167.4805,15354.9805,-4349.2660,0
3.027344,4946.7773,-14816.4062,-10314.9414,-9493.5469,0
3.031000,-13690.9180,15026.8555,15511.2305,-14308.5938,0
3.031250,11147.4609,12942.3828,-9022.9492,-13924.4999,0
3.034906,2319.8242,-15691.8945,-11940.9180,-8307.1289,0
3.038812,-14877.4414,6925.2930,8945.3125,5079.1016,0
3.042719,-14065.9180,14815.9180,15097.1680,-14730.4688,0
3.046625,1320.8008,14183.1055,-13940.4297,-8556.6406,0
3.050531,-2864.2578,-1055.1758,14957.5195,-10903.8086,0
3.054437,-13776.8555,15042.4805,15269.0430,-14472.6562,0
3.058344,4445.8008,-15816.4062,-8815.4297,-5556.6406,0
3.062250,11139.6484,-5058.1055,8945.8008,-14903.8086,0
3.078000,-13604.9805,15159.6680,15354.9805,-14394.5312,0
3.081906,569.3359,13307.1289,-13941.4062,-11809.0820,0
3.085812,-871.5820,2925.2930,8952.6367,-930.1758,0
3.089719,-13823.7305,14808.1055,15245.6055,-14777.3438,0
3.093625,2320.8008,-15940.9180,-9564.9414,-11432.6172,0
3.097531,-14863.2812,4938.9648,-7033.6914,-2913.5742,0
3.101437,-13854.9805,15011.2305,15542.4805,-14621.0938,0
3.105344,3695.8008,-15566.4062,-8690.4297,-10182.6172,0
3.109250,3146.4844,-3056.1523,-11037.1094,9089.8438,0
3.125000,-13698.7305,15097.1680,15386.2305,-14496.0938,0
3.128906,2572.7539,-15691.4062,-11064.4531,-9931.1523,0
3.132812,-4849.6094,10947.2656,-5035.6445,1099.1211,0
3.136719,-14136.2305,15003.4180,15081.5430,-14699.2188,0
3.140625,69.8242,15308.5938,-11940.4297,-12558.5938,0
3.144531,-6877.9297,935.5469,10949.7070,15061.5234,0
3.148438,-13894.0430,14933.1055,15245.6055,-14902.3438,0
3.152344,4696.2891,-14440.9180,-11440.4297,-12432.1289,0
3.156250,-8861.3281,-9057.6172,2956.5430,3089.8438,0
3.188000,-13886.2305,14972.1680,11323.8140,-14714.8438,0
3.191906,2320.8008,15808.1055,12353.2519,-9682.1289,0
3.195812,-6851.5625,-15059.0820,13382.6898,-14900.8789,0
3.199719,-13534.6680,15065.9180,14412.1276,-14253.9062,0
3.203625,5196.7773,15309.5703,10782.0118,-7932.1289,0
3.207531,5137.2070,4949.7070,-12531.1524,-4912.1094,0
3.211437,-14050.2930,14870.6055,-6794.8048,-14753.9062,0
3.215344,570.8008,14308.5938,10826.0743,-12807.6172,0
3.219250,9139.1602,8936.5234,-12522.5586,5077.6367,0
3.235000,-13729.9805,15003.4180,15229.9805,-1233.9598,0
3.238906,2444.8242,-13816.4062,-12566.4062,-2917.8933,0
3.242812,-870.1172,-9046.3867,-15059.0820,-4601.8268,0
3.246719,-13714.3555,15323.7305,15159.6680,-6285.7604,0
3.250625,6821.2891,-12441.8945,-11316.4062,-7969.6939,0
3.254531,-14870.1172,-3082.0312,-1071.7773,-9653.6274,0
3.258437,-13722.1680,14886.2305,14956.5430,-11337.5609,0
3.262344,5571.2891,-14315.9180,-13690.4297,-13021.4945,0
3.266000,-13644.0430,15214.3555,15292.4805,-14597.6562,0
3.266250,-12854.0039,6952.1484,10961.4258,-14203.0625,0
3.269906,5445.8008,-15066.8945,-13065.9180,-8432.1289,0
3.273813,-863.7695,-3055.1758,-1046.8750,-924.3164,0
3.277719,-13957.0312,15058.1055,15026.8555,-15003.9062,0
3.281625,-1180.1758,13683.1055,14058.1055,-15308.5938,0
3.285531,15133.7891,-11064.4531,-5050.7812,11064.9414,0
3.289438,-13675.2930,14940.9180,15394.0430,-14878.9062,0
3.293344,1194.8242,15058.1055,-8564.4531,-12558.1055,0
3.297250,-8864.7461,-11065.9180,12971.1914,11074.7070,0
3.328000,-13862.7930,14854.9805,15300.2930,-10682.7734,0
3.331906,2821.2891,15808.5938,-11315.4297,999.2774,0
3.335812,-14854.9805,10938.4766,-1050.2930,-11814.9219,0
3.339719,-13620.6055,15183.1055,15065.9180,-10162.3633,0
3.343625,7821.7773,-13066.4062,-15316.4062,1098.1250,0
3.347531,-2854.9805,12940.4297,-9051.2695,-606.0384,0
3.351437,-13714.3555,15159.6680,15237.7930,-4994.2724,0
3.355344,6446.2891,-11441.4062,-13941.4062,-9382.5064,0
3.359250,3129.8828,12930.6641,2942.8711,-13770.7403,0
3.360000,-13909.6680,15081.5430,15206.5430,-14613.2812,0
3.363906,1070.3125,-13441.8945,-12815.4297,-8432.1289,0
3.367812,-8853.0273,-7053.7109,8962.4023,7093.2617,0
3.371719,-13667.9688,15323.7305,15214.3555,-14605.4688,0
3.375625,-1555.6641,-15316.4062,-12815.4297,-14308.5938,0
3.379531,9115.7227,944.3359,-7038.0859,13066.4062,0
3.383437,-14097.6562,14972.1680,15401.8555,-14996.0938,0
3.387344,-1555.1758,15183.5938,-10690.9180,15941.4062,0
3.391250,1116.2109,934.5703,-5047.8516,15068.8477,0
3.438000,-14136.7188,14894.0430,14987.3279,13667.9687,0
3.441906,-1180.1758,15308.5938,15109.5194,6292.8874,0
3.445812,-8877.9297,-13058.1055,15231.7108,-1082.1940,0
3.449719,-13886.2305,15065.9180,15353.9022,-8457.2754,0
3.453000,-14207.0312,14800.2930,15456.5430,-14652.3438,0
3.453625,5820.8008,15558.1055,11853.3399,-13897.0313,0
3.456906,-1430.1758,12432.6172,-7063.4766,-9931.6406,0
3.457531,3120.6055,12935.5469,-5136.2891,-8166.4844,0
3.460812,-10871.5820,-7067.8711,4981.4453,1100.5859,0
3.461437,-14222.6562,14769.0430,6636.2109,-1389.8828,0
3.464719,-14097.6562,14831.5430,15323.7305,-14464.8438,0
3.465344,-2555.1758,12432.6172,11021.5431,-13599.6094,0
3.468625,-1555.1758,15183.5938,-11564.9414,-9057.1289,0
3.469250,9108.8867,-7073.2422,-12119.2383,-5192.7540,0
3.472531,-10876.9531,-5054.1992,-15029.2969,15095.2148,0
3.476437,-14066.4062,14933.1055,15644.0430,-14488.2812,0
3.480344,-6057.1289,12057.1289,-4813.9648,-10058.1055,0
3.484250,-12905.7617,-9080.0781,8976.0742,3067.8711,0
3.500000,-14472.6562,14714.3555,15565.9180,-14972.6562,0
3.503906,-8805.6641,10307.6172,-9064.9414,14941.4062,0
3.507812,3117.6758,10927.2461,10961.9141,-929.6875,0
3.511719,-14222.6562,14729.9805,15261.2305,-15097.6562,0
3.515625,-3305.6641,13432.6172,-10689.9414,14191.4062,0
3.519531,13115.2344,-9074.7070,8967.7734,3067.3828,0
3.523438,-14097.6562,14979.9805,15573.7305,-14746.0938,0
3.527344,-2931.1523,-15441.8945,-9564.9414,-12183.1055,0
3.531250,3111.8164,-3059.5703,968.2617,-12914.0625,0
3.547000,-13909.6680,5881.4322,15519.0430,-14574.2188,0
3.550906,318.8477,8098.9428,-5814.9414,-8557.6172,0
3.554812,-12895.5078,10316.4533,-7042.4805,-8931.1523,0
3.558719,-14191.4062,12533.9639,15433.1055,-14761.7188,0
3.562625,-2931.1523,14751.4745,-10815.4297,-12058.1055,0
3.566531,-4895.9961,14032.5469,-15041.5039,15071.7773,0
3.570437,-14222.6562,9424.6289,15378.4180,-14824.2188,0
3.574344,-2680.1758,14513.6992,-8314.4531,-12182.6172,0
3.578250,3125.0000,-11039.9531,-15033.6914,7089.8438,0
3.610000,-13870.6055,15026.8555,15386.2305,-14519.5312,0
3.613906,444.3359,-15316.4062,-9690.4297,-9432.1289,0
3.617812,-881.8359,-9056.1523,10959.9609,15083.9844,0
3.621719,-13839.3555,15058.1055,15479.9805,-14667.9688,0
3.625625,3943.8477,15307.6172,-9315.4297,-8558.1055,0
3.629531,7083.0078,10924.8047,956.5430,-944.8242,0
3.633437,-14550.7812,14956.5430,15456.5430,-15105.4688,0
3.637344,-6931.1523,15558.1055,-7564.4531,-15933.5938,0
3.641250,-6887.6953,-9064.9414,-13027.3438,15071.7773,0
3.656000,-14253.9062,14808.1055,15479.9805,-14941.4062,0
3.659906,-3431.1523,10682.6172,-8439.4531,-15183.1055,0
3.663812,7104.0039,-5065.9180,-7026.3672,7072.2656,0
3.667719,-14222.6562,14870.6055,15206.5430,-14910.1562,0
3.671625,-4931.1523,13808.1055,-13314.9414,-15183.1055,0
3.675531,-6884.7656,-7051.7578,10959.4727,13075.1953,0
3.679437,-14363.2812,15003.4180,15214.3555,-15027.3438,0
3.683344,-10556.6406,13558.1055,-12314.9414,15066.4062,0
3.687250,-12898.9258,-7071.2891,6964.8438,11056.6406,0
3.688000,-14613.2812,14769.0430,15292.4805,-15253.9062,0
3.691906,-8307.1289,14933.1055,-11065.9180,12064.4531,0
3.695812,1080.0781,-9063.9648,-1059.0820,-2958.9844,0
3.699719,-14480.4688,15065.9180,15284.6680,-15121.0938,0
3.703625,-5681.1523,15558.1055,-7564.9414,13065.4297,0
3.707531,7119.1406,4939.9414,10962.4023,5053.2227,0
3.711437,-14121.0938,14940.9180,15315.9180,-15152.3438,0
3.715344,-3180.1758,13683.5938,-13190.4297,12565.9180,0
3.719250,-8895.0195,-11061.5234,-3038.5742,9048.8281,0
3.735000,-14558.5938,14972.1680,15229.9805,-15496.0938,0
3.738906,-6806.6406,-15691.4062,-11315.4297,8939.9414,0
3.742812,15093.7500,2941.8945,4947.7539,-10949.2188,0
3.746719,-14503.9062,15058.1055,15183.1055,-15214.8438,0
3.750625,-8307.1289,-14441.4062,-12064.9414,11315.4297,0
3.754531,-2904.2969,-15056.1523,966.3086,3056.6406,0
3.758437,-14324.2188,15151.8555,15487.7930,-14933.5938,0
3.762344,-5931.1523,-15191.4062,-8064.4531,15565.4297,0
3.766250,13112.3047,14939.9414,-7025.8789,-940.4297,0
3.781000,-14269.5312,14917.4805,15362.7930,-15136.7188,0
3.784906,-4805.6641,-14440.9180,-10939.9414,12940.9180,0
3.788812,13125.4883,-1053.7109,-11035.1562,9059.0820,0
3.792719,-14089.8438,15120.6055,15167.4805,-15183.5938,0
3.796625,-2805.1758,-14692.3828,-13189.9414,13565.9180,0
3.800531,9114.2578,8916.9922,10966.7969,-12940.9180,0
3.804437,-14347.6562,14909.6680,15331.5430,-15113.2812,0
3.808344,-8806.6406,15808.1055,-11064.9414,11690.4297,0
3.812250,-8885.7422,8935.5469,4959.9609,-10944.8242,0
3.844000,-14246.0938,14933.1055,-7625.9336,-12797.3086,0
3.847906,-2930.1758,14308.1055,13218.2148,-2279.3984,0
3.851812,7114.2578,931.1523,12991.6211,-12097.3593,0
3.855719,-14042.9688,15011.2305,-8194.1797,14559.3164,0
3.859625,-429.6875,15809.0820,13012.8464,4593.3082,0
3.863531,3116.6992,6937.0117,13584.0822,-385.6589,0
3.867437,-14316.4062,14862.7930,14155.3180,-5364.6260,0
3.871344,-4555.6641,-15691.4062,14726.5538,-10343.5930,0
3.875000,-14230.4688,15034.6680,15261.2305,-15003.9062,0
3.875250,-10876.4648,14940.4297,13696.3556,-15023.3750,0
3.878906,-5931.1523,-13440.9180,-9189.9414,-15308.1055,0
3.882812,-4888.6719,-1055.1758,12954.1016,3063.9648,0
3.886719,-14097.1680,15159.6680,15331.5430,-14941.4062,0
3.890625,69.8242,-10940.9180,-8564.4531,-15308.5938,0
3.894531,-4880.3711,8940.4297,8964.8438,13064.4531,0
3.898438,-14089.8438,15042.4805,15276.8555,-15136.7188,0
3.902344,-1554.6875,-15440.9180,-12439.9414,14691.4062,0
3.906250,-8875.9766,8940.4297,-9039.5508,-2938.4766,0
3.938000,-14073.7305,14894.0430,-14564.1745,-9077.0792,0
3.941906,1944.8242,15183.1055,-12072.9974,-9809.1407,0
3.945812,-891.1133,14923.3398,-9581.8203,-10541.2021,0
3.949719,-14136.2305,14769.0430,-7090.6433,-11273.2635,0
3.953625,569.3359,14682.6172,-4599.4662,-12005.3250,0
3.957531,-4892.5781,-15078.6133,-2108.2892,-12737.3864,0
3.961437,-14222.6562,15034.6680,382.8879,-13469.4478,0
3.965344,-1555.6641,-12941.4062,2874.0650,-14201.5092,0
3.969250,-8882.8125,12938.9648,5365.2420,-14761.6875,0
3.985000,-14066.4062,15050.2930,15409.6680,-11542.8203,0
3.988906,-805.6641,-15441.8945,-9440.4297,3152.5430,0
3.992812,-869.1406,14948.2422,10958.9844,-14858.7344,0
3.996719,-13729.9805,15159.6680,15487.7930,-13644.8711,0
4.000625,1071.2891,11808.1055,-11690.4297,-10980.6236,0
4.004531,9133.7891,6936.0352,8958.9844,-11501.0351,0
4.008437,-14097.1680,14878.4180,15331.5430,-12021.4467,0
4.012344,195.8008,15058.1055,-8939.4531,-12541.8582,0
4.016250,-4857.9102,-13063.4766,958.0078,-13062.2698,0
4.031000,-14019.5312,14979.9805,15245.6055,-15027.3438,0
4.034906,-2054.6875,14308.1055,-12190.9180,15565.9180,0
4.038812,11132.8125,2937.9883,8950.6836,-937.9883,0
4.042719,-14081.5430,15026.8555,15261.2305,-15082.0312,0
4.046625,195.3125,-15566.8945,-11315.9180,15440.9180,0
4.050531,-8875.4883,10935.0586,-9050.2930,-12946.7773,0
4.054437,-13987.7930,15151.8555,15425.2930,-14988.2812,0
4.058344,2445.3125,-13316.4062,-8315.4297,-14058.5938,0
4.062250,-4878.4180,10938.4766,-13046.8750,7062.0117,0
4.063000,-13988.2812,15042.4805,15190.9180,-14972.6562,0
4.066906,-679.6875,15933.5938,-13190.9180,15816.4062,0
4.070812,-2846.6797,-7062.0117,14950.1953,13070.8008,0
4.074719,-13785.1562,14964.3555,15276.8555,-14871.0938,0
4.078625,-2055.1758,-14941.4062,-13066.4062,-15058.5938,0
4.082531,11121.0938,-15058.1055,-5050.2930,13066.8945,0
4.086437,-13972.1680,14909.6680,15308.1055,-14800.7812,0
4.090344,2320.3125,14433.5938,-11815.9180,-11183.1055,0
4.094250,-12866.2109,14954.1016,-5029.7852,-8909.6680,0
4.110000,-13683.1055,15269.0430,15589.3555,-14378.9062,0
4.113906,2444.3359,15058.5938,-12440.9180,-10808.5938,0
4.117812,-4899.4141,6937.0117,-11047.3633,-2929.6875,0
4.121719,-14206.5430,14964.3555,15229.9805,-14847.6562,0
4.125625,1820.8008,-15066.4062,-10689.4531,-13933.1055,0
4.129531,15134.2773,-15057.1289,4966.7969,-8928.2227,0
4.133437,-13839.8438,15104.9805,15433.1055,-14902.3438,0
4.137344,-1180.6641,-14941.4062,-8064.9414,-13309.0820,0
4.141250,3120.1172,10940.4297,2956.0547,-939.9414,0
4.156000,-14035.1562,14995.6055,15347.1680,-14925.7812,0
4.159906,-805.1758,-15565.9180,-9065.4297,-13933.5938,0
4.163812,9109.3750,-9045.8984,-11047.3633,-4935.0586,0
4.167719,-14285.1562,15222.1680,15308.1055,-14964.8438,0
4.171625,-1929.6875,-11565.9180,-8813.9648,-14808.5938,0
4.175531,15143.5547,-9052.2461,983.3984,-6914.0625,0
4.179437,-13917.9688,15050.2930,15362.7930,-14488.2812,0
4.183344,-4555.6641,-15691.4062,-13939.9414,-10682.6172,0
4.187250,11123.0469,-1052.2461,8966.3086,-4909.1797,0
4.203000,-14050.7812,15097.1680,15284.6680,-14722.6562,0
4.206906,-4806.1523,-14441.4062,-11314.9414,-14558.1055,0
4.210812,13104.4922,-13060.5469,4958.0078,-12927.2461,0
4.214719,-14246.0938,15237.7930,15308.1055,-14707.0312,0
4.218625,-3930.6641,-13691.4062,-11939.9414,-10057.1289,0
4.222531,15116.6992,-5051.2695,-15034.6680,5089.8438,0
4.226437,-14300.7812,15042.4805,15323.7305,-14566.4062,0
4.230344,-4932.1289,-15316.8945,-10440.9180,-8557.6172,0
4.234250,-12915.5273,-3063.9648,-13046.3867,11071.7773,0
4.250000,-14417.9688,14979.9805,15261.2305,-14808.5938,0
4.253906,-6181.6406,-15940.9180,-12565.4297,-9932.6172,0
4.257812,13101.5625,8943.3594,10957.5195,-12922.3633,0
4.261719,-14308.1055,14862.7930,15284.6680,-14808.5938,0
4.265625,69.8242,-14565.9180,-10064.9414,-11557.6172,0
4.269531,15093.2617,-3057.1289,4957.0312,13062.5000,0
4.273438,-14378.9062,15136.2305,15315.9180,-14980.4688,0
4.277344,-4056.1523,-11315.9180,-12815.9180,-14683.5938,0
4.281250,13103.5156,-5053.2227,-11032.2266,9065.4297,0
4.313000,-14425.7812,15128.4180,-8284.6953,15278.2266,0
4.316906,-8682.1289,15558.1055,5955.7617,6710.7773,0
4.320812,-8914.0625,-11065.4297,13029.0429,-12408.1406,0
4.324719,-14480.4688,14925.2930,-8135.7539,13811.9180,0
4.328625,-3806.6406,-15816.4062,3112.3470,8490.0367,0
4.332531,1088.3789,931.1523,4613.2351,2491.2739,0
4.336437,-14402.3438,14933.1055,6114.1232,-3507.4889,0
4.340344,-4805.1758,-14815.9180,7615.0114,-9506.2517,0
4.344250,-12868.1641,10956.0547,9115.8995,-13581.1876,0
4.360000,-14199.2188,15120.6055,15167.4805,12808.0156,0
4.363906,-7181.6406,14558.1055,-15690.9180,-5874.3555,0
4.367812,-12901.8555,-9060.0586,10951.1719,-14566.4687,0
4.371719,-14277.3438,15104.9805,15276.8555,-10178.8594,0
4.375625,-2681.1523,-15441.8945,-11815.9180,10733.5473,0
4.379531,15102.0508,-11055.1758,-11048.3398,7403.5957,0
4.383437,-14183.1055,15378.4180,15370.6055,4073.6441,0
4.387344,69.8242,-9940.4297,-8188.9648,743.6925,0
4.391250,1104.9805,14948.2422,4973.1445,-2586.2591,0
4.406000,-14316.4062,14979.9805,15409.6680,-15160.1562,0
4.409906,-4305.6641,-15816.4062,-8939.9414,13815.4297,0
4.413812,-10891.6016,-1057.6172,-7037.5977,15050.2930,0
4.417719,-14347.6562,15183.1055,15479.9805,-15128.9062,0
4.421625,-3806.6406,-11690.9180,-8189.9414,13065.4297,0
4.425531,-901.3672,4941.8945,8965.3320,-12939.4531,0
4.429437,-14488.2812,14964.3555,15245.6055,-15246.0938,0
4.433344,-3930.1758,-15940.4297,-12314.4531,11816.4062,0
4.437250,-895.9961,-15043.9453,4967.2852,3051.7578,0
4.438000,-14332.0312,15128.4180,15300.2930,-15394.5312,0
4.441906,-2931.1523,-14066.8945,-9940.4297,11565.9180,0
4.445812,-6875.4883,14942.8711,954.5898,3075.6836,0
4.449719,-13855.4688,15487.7930,15503.4180,-14511.7188,0
4.453625,-6433.1055,-12816.8945,-11815.9180,15064.4531,0
4.457531,3075.6836,-15063.4766,12954.1016,3039.0625,0
4.461437,-14511.7188,14901.8555,15456.5430,-15183.5938,0
4.465344,-8307.1289,15183.1055,-8565.4297,14065.4297,0
4.469250,-6906.2500,10944.8242,-9042.9688,-14947.7539,0
4.516000,-14355.4688,15222.1680,-7288.0625,-14891.7656,0
4.519906,-3181.6406,-14566.4062,-1491.9361,-14877.9007,0
4.523813,-2902.8320,939.9414,4442.8277,-14820.4863,0
4.527719,-14277.3438,15229.9805,10377.5915,-14763.0719,0
4.531000,-13972.1680,15261.2305,15362.7930,-14714.8438,0
4.531625,-1930.6641,-11066.4062,11194.1208,-14549.9219,0
4.534906,69.3359,-12191.4062,-10691.4062,-13684.0820,0
4.535531,13103.0273,-7073.7305,-11069.2969,-12284.5507,0
4.538812,-880.8594,-1047.8516,-13053.2227,-4937.0117,0
4.539438,-14230.4688,14792.4805,-8515.4098,-6563.9650,0
4.542719,-13956.5430,15315.9180,15308.1055,-15105.4688,0
4.543344,-3555.1758,14558.1055,11148.4177,-10317.8903,0
4.546625,570.3125,-11940.4297,-10689.9414,14816.8945,0
4.547250,-12867.1875,10938.9648,-10424.3945,11337.2068,0
4.550531,9112.7930,14941.8945,-9030.2734,-6931.1523,0
4.554437,-14207.0312,15120.6055,15511.2305,-15019.5312,0
4.558344,-305.1758,-10065.9180,-8565.4297,-14309.0820,0
4.562250,3115.2344,10941.8945,-9043.4570,-2948.7305,0
4.578000,-14371.0938,15050.2930,15120.6055,-15144.5312,0
4.581906,-4931.1523,-15316.8945,-13439.9414,14690.9180,0
4.585812,-2899.9023,2923.3398,965.3320,-10935.5469,0
4.589719,-14339.8438,14878.4180,15526.8555,-14902.3438,0
4.593625,-3805.1758,13683.5938,-5439.4531,-10306.6406,0
4.597531,9102.0508,-5042.4805,4952.1484,1069.3359,0
4.601437,-14566.4062,15245.6055,15308.1055,-15402.3438,0
4.605344,-6556.1523,-13690.9180,-11190.4297,9440.9180,0
4.609250,-899.4141,8944.3359,14946.7773,1045.4102,0
4.625000,-14371.0938,15081.5430,15026.8555,-15332.0312,0
4.628906,-2806.6406,-10315.9180,-11941.4062,13939.9414,0
4.632812,-2900.8789,-5067.8711,-3061.0352,-960.4492,0
4.636719,-14113.2812,15026.8555,15245.6055,-15199.2188,0
4.640625,-1430.1758,-15691.8945,-11315.4297,13815.9180,0
4.644531,9116.6992,-5056.6406,-13048.3398,-8933.5938,0
4.648438,-14191.4062,15089.3555,15206.5430,-14886.7188,0
4.652344,-1804.6875,-14190.9180,-11190.4297,-14058.1055,0
4.656250,11145.0195,2947.2656,-3033.2031,9080.5664,0
4.688000,-13769.5312,15206.5430,12687.0937,9629.6953,0
4.691906,-2430.1758,-15941.4062,2325.4219,-11364.8086,0
4.695812,9121.5820,961.4258,12827.0586,-12324.0937,0
4.699719,-14253.9062,15378.4180,-8657.6953,12105.6691,0
4.703625,-3056.1523,-12190.9180,7155.4827,12207.8701,0
4.707531,-8898.4375,4938.4766,9268.4617,-10909.9219,0
4.711437,-14238.2812,15104.9805,11381.4407,-3195.5664,0
4.715344,-1930.6641,-11815.9180,13494.4196,-14952.4219,0
4.719250,15107.4219,6941.4062,13973.7618,-14619.1602,0
4.735000,-14160.1562,15167.4805,-9290.4336,-5198.5882,0
4.738906,-2306.1523,-11315.4297,11390.1328,-6474.4993,0
4.742812,-8895.0195,10947.2656,12560.2148,-7750.4104,0
4.746719,-14308.5938,15175.2930,-13077.4687,-9026.3215,0
4.750625,-3680.6641,-12566.8945,1116.3479,-10302.2326,0
4.754531,1124.5117,-11054.1992,2918.3116,-11578.1437,0
4.758437,-14136.7188,15229.9805,4720.2754,-12854.0548,0
4.762344,-8556.6406,-14566.8945,6522.2391,-14129.9660,0
4.766250,-900.3906,-11071.7773,8324.2029,-13659.2814,0
4.781000,-14558.5938,15183.1055,15128.4180,9478.9059,0
4.784906,-9305.6641,-10815.9180,-15190.9180,13248.0469,0
4.788812,3110.3516,10944.8242,-3043.4570,-10308.9059,0
4.792719,-14441.4062,15089.3555,15284.6680,-11651.0938,0
4.796625,-4931.1523,-14815.9180,-10189.9414,-7591.1329,0
4.800531,-2895.0195,-15057.6172,14965.3320,-8599.5687,0
4.804437,-14214.8438,14925.2930,15331.5430,-10586.3599,0
4.808344,-2305.6641,-13815.9180,-6938.9648,-12573.1511,0
4.812250,1115.7227,-1047.8516,-15017.0898,-14559.9423,0
4.828000,-14292.9688,15229.9805,15620.6055,-13426.9336,0
4.831906,-11056.6406,-15691.8945,-11065.4297,464.8438,0
4.835812,1116.2109,-1051.2695,6971.1914,-12086.7188,0
4.839719,-14167.9688,15104.9805,15542.4805,-15254.8438,0
4.843625,-3305.6641,15308.5938,-10439.9414,-8278.5156,0
4.847531,1108.3984,-1051.7578,6954.1016,-8635.8236,0
4.851437,-14050.2930,15097.1680,15206.5430,-10655.3122,0
4.855344,70.3125,-15566.8945,-10189.9414,-12674.8008,0
4.859250,7127.4414,-11060.0586,-5041.5039,-14694.2894,0
4.860000,-14097.6562,15104.9805,15347.1680,-15082.0312,0
4.863906,-304.6875,-10939.9414,-8314.4531,-14683.1055,0
4.867812,-10893.5547,-15056.1523,2961.9141,-6938.4766,0
4.871719,-14284.6680,15065.9180,15331.5430,-15097.6562,0
4.875625,1695.3125,-12816.8945,-8315.4297,-15559.5703,0
4.879531,7112.3047,10921.3867,-5060.0586,-4949.7070,0
4.883437,-14183.1055,14933.1055,15050.2930,-15136.7188,0
4.887344,1695.3125,-13065.9180,-8188.9648,-14808.1055,0
4.891250,-2877.4414,-7058.5938,961.4258,15065.4297,0
4.906000,-13901.8555,15237.7930,15409.6680,-14800.7812,0
4.909906,3196.2891,-11190.9180,-10190.4297,-9932.6172,0
4.913812,11145.0195,-7041.9922,10972.6562,-8920.4102,0
4.917719,-13980.4688,15058.1055,15472.1680,-14949.2188,0
4.921625,-1054.6875,15434.5703,-11690.4297,14941.4062,0
4.925531,-10870.1172,4950.6836,-11049.3164,7061.0352,0
4.929437,-14011.2305,15073.7305,15089.3555,-15167.9688,0
4.933344,1945.8008,-13940.9180,-12315.4297,-15933.5938,0
4.937250,-864.7461,2951.1719,-3031.7383,-4927.7344,0
4.969000,-14160.1562,15198.7305,15495.6055,-14816.4062,0
4.972906,-4054.6875,-13690.9180,-8939.9414,-12307.6172,0
4.976812,-14862.7930,-9044.9219,-11025.3906,-6907.7148,0
4.980719,-14175.7812,15112.7930,15354.9805,-14847.6562,0
4.984625,-7556.1523,13933.1055,-15191.4062,13190.4297,0
4.988531,15112.7930,10937.9883,-5053.2227,11047.8516,0
4.992437,-14246.0938,15011.2305,15261.2305,-15121.0938,0
4.996344,-5055.6641,-14315.9180,-10939.9414,15191.4062,0
5.000000,-13800.7812,15386.2305,15628.4180,-14746.0938,0
5.000250,-14868.6523,-15047.8516,970.7031,7071.7773,0
5.003906,-555.6641,-9440.9180,-9440.9180,-11808.5938,0
5.007812,11120.6055,-13051.7578,10950.6836,-10937.9883,0
5.011719,-13972.1680,15128.4180,15362.7930,-14746.0938,0
5.015625,5196.7773,15808.5938,-5689.4531,-8432.1289,0
5.019531,9117.6758,2934.0820,-9033.6914,9071.2891,0
5.023438,-14183.1055,15058.1055,15417.4805,-14980.4688,0
5.027344,569.8242,-10940.9180,-10315.4297,-13933.5938,0
5.031250,-12875.9766,8947.7539,2958.0078,-4929.6875,0
5.047000,-13800.2930,12122.2664,15456.5430,-14628.9062,0
5.050906,2069.8242,12909.5959,-10565.4297,-11308.5938,0
5.054812,-14875.4883,13696.9254,-15044.4336,11069.3359,0
5.058719,-14034.6680,14484.2549,15206.5430,-14972.6562,0
5.062625,320.8008,15271.5843,-10939.9414,14441.4062,0
5.066531,-4870.6055,-10903.7031,12956.5430,-926.2695,0
5.070437,-13979.9805,6772.1875,15331.5430,-14753.9062,0
5.074344,1569.8242,14457.1523,-6439.4531,-8432.1289,0
5.078250,5119.6289,-11610.5117,8952.6367,11083.4961,0
5.110000,-13988.2812,15237.7930,15237.7930,13756.6406,0
5.113906,-304.6875,-11191.4062,-13440.9180,-2283.6367,0
5.117812,-2874.5117,10940.4297,-7032.7148,-14819.1406,0
5.121719,-13909.6680,15206.5430,15495.6055,-10626.3945,0
5.125625,2944.3359,-12565.9180,-9189.9414,10770.7222,0
5.129531,9104.0039,950.6836,4963.3789,7487.2293,0
5.133437,-14316.4062,15050.2930,15362.7930,4203.7363,0
5.137344,-2680.1758,-15315.4297,-9689.9414,920.2434,0
5.141250,-8873.5352,2952.1484,12962.8906,-2363.2495,0
5.156000,-14066.4062,15144.0430,15229.9805,-14761.7188,0
5.159906,-2679.6875,-12064.9414,-12814.9414,-12807.1289,0
5.163812,-12877.9297,-9037.5977,2958.4961,-6906.2500,0
5.167719,-14160.1562,15229.9805,15276.8555,-14753.9062,0
5.171625,-2431.1523,-14441.4062,-11440.4297,-13933.1055,0
5.175531,15114.2578,-9050.7812,-13049.8047,5074.2188,0
5.179437,-14082.0312,15097.1680,15253.4180,-14746.0938,0
5.183344,-2805.1758,15558.5938,-9689.9414,-12932.6172,0
5.187250,-12875.9766,-3045.4102,6967.2852,-12910.6445,0
5.188000,-14199.2188,15245.6055,15487.7930,-14511.7188,0
5.191906,-929.6875,-10939.9414,-9940.4297,-7056.6406,0
5.195812,3109.8633,12939.9414,-9041.5039,3092.7734,0
5.199719,-14276.8555,14776.8555,15433.1055,-14558.5938,0
5.203625,1445.8008,-14190.9180,-4938.9648,-7181.6406,0
5.207531,-895.9961,-3054.6875,-7036.6211,-4924.3164,0
5.211437,-14597.6562,15058.1055,15269.0430,-14886.7188,0
5.215344,-5056.1523,15433.1055,-11065.4297,-13683.5938,0
5.219250,-8886.7188,-7051.2695,-13039.0625,9079.5898,0
5.235000,-14074.2188,15253.4180,15487.7930,-14644.5312,0
5.238906,-4431.1523,15934.5703,-12066.4062,14065.9180,0
5.242812,-4882.8125,-15027.3438,12946.2891,15065.4297,0
5.246719,-14081.5430,15378.4180,15315.9180,-15042.9688,0
5.250625,1695.8008,-9815.4297,-10315.4297,-14683.1055,0
5.254531,5128.4180,-11064.9414,14951.1719,-8932.6172,0
5.258437,-13901.8555,14901.8555,15253.4180,-14894.5312,0
5.262344,1195.8008,-11939.9414,-8938.9648,-8931.6406,0
5.266250,-10859.8633,-3041.9922,6969.2383,-4912.1094,0
5.281000,-13902.3438,15065.9180,15269.0430,-14753.9062,0
5.284906,-2431.1523,15308.1055,-10940.4297,-12808.5938,0
5.288812,15113.7695,-11059.0820,948.7305,-6925.7812,0
5.292719,-14074.2188,15050.2930,15167.4805,-14816.4062,0
5.296625,-2681.1523,-13941.8945,-10564.9414,-13183.1055,0
5.300531,-6883.3008,-11065.4297,-11028.3203,-14917.9688,0
5.304437,-14011.2305,15222.1680,15667.4805,-14519.5312,0
5.308344,2445.8008,-13566.4062,-6189.9414,-7682.1289,0
5.312250,-14890.1367,-11056.1523,-7052.7344,-14938.9648,0
5.328000,-14324.2188,15308.1055,15089.3555,-15152.3438,0
5.331906,-3805.6641,-9815.4297,-12064.9414,-15558.5938,0
5.335812,13106.4453,-11043.4570,951.6602,-2942.8711,0
5.339719,-14308.5938,15073.7305,15058.1055,-15355.4688,0
5.343625,-3806.1523,-14690.9180,-14190.9180,11940.4297,0
5.347531,9107.9102,10942.3828,-11047.3633,-12945.8008,0
5.351437,-14160.1562,15144.0430,15386.2305,-14980.4688,0
5.355344,-2056.1523,-12191.4062,-9565.9180,-15809.5703,0
5.359250,-4906.2500,-9071.2891,-7054.6875,5038.5742,0
5.375000,-14332.0312,14987.7930,15206.5430,-15230.4688,0
5.378906,-2431.1523,-13691.4062,-9440.4297,14190.9180,0
5.382812,-12893.5547,-1058.1055,-9047.8516,3056.1523,0
5.386719,-13894.0430,15292.4805,15495.6055,-14839.8438,0
5.390625,1318.8477,-8315.9180,-10191.4062,-13059.0820,0
5.394531,-8889.6484,-13056.1523,-5037.1094,-8929.1992,0
5.398438,-14230.4688,15214.3555,15394.0430,-14949.2188,0
5.402344,-3805.6641,-14690.9180,-10814.9414,15441.4062,0
5.406250,13104.0039,957.0312,2959.4727,-10934.5703,0
5.422000,-14308.5938,8079.9435,15456.5430,-14925.7812,0
5.425906,-2805.6641,9846.5389,-8690.4297,-14058.5938,0
5.429812,7116.6992,11613.1342,8964.8438,13073.2422,0
5.433719,-14277.3438,13379.7295,15448.7305,-14832.0312,0
5.437625,-8807.1289,15146.3248,-12565.4297,14815.4297,0
5.441531,-8900.8789,-8646.2617,4964.3555,-2942.8711,0
5.445437,-14503.9062,-5639.3516,15370.6055,-15175.7812,0
5.449344,-8306.6406,13290.1836,-9689.9414,15066.4062,0
5.453250,-4908.6914,-11479.6445,-13047.3633,-6944.8242,0
5.485000,-14511.7188,15183.1055,15269.0430,-10446.8203,0
5.488906,-2555.1758,-12815.4297,-10690.4297,4979.2930,0
5.492812,-2902.8320,14959.4727,14958.0078,-14406.1250,0
5.496719,-14613.2812,15292.4805,15331.5430,-9894.3203,0
5.500625,-8431.6406,-12565.4297,-8564.9414,671.0728,0
5.504531,13098.6328,944.8242,-15035.6445,-3380.8623,0
5.508437,-14425.7812,14956.5430,15425.2930,-7432.7974,0
5.512344,-6057.1289,-10564.9414,-9689.4531,-11484.7325,0
5.516250,-923.3398,12942.8711,6962.4023,-13543.4064,0
5.531000,-14941.4062,15112.7930,-3981.5036,-13977.7539,0
5.534906,-15933.5938,-12190.9180,2933.5155,-9721.0547,0
5.538812,-12923.3398,-3047.8516,13704.4335,-13961.8749,0
5.542719,-14558.5938,15347.1680,-5049.8435,-12515.6836,0
5.546625,-8557.1289,-12691.4062,-612.8712,-9433.1055,0
5.550531,-6909.1797,-13058.1055,4019.8160,-10199.4832,0
5.554437,-14503.9062,15042.4805,7646.8060,-11707.0758,0
5.558344,-8307.1289,-13065.4297,11273.7959,-13214.6684,0
5.562250,11083.4961,2944.3359,14900.7859,-14722.2610,0
5.563000,-14707.0312,15144.0430,15597.1680,-15011.7188,0
5.566906,-9807.1289,-13066.4062,-7815.9180,14815.9180,0
5.570812,11078.6133,-11052.7344,-3050.2930,11052.7344,0
5.574719,-14691.4062,15175.2930,15440.9180,-15019.5312,0
5.578625,-9181.6406,-15816.4062,-7064.4531,-12308.1055,0
5.582531,11092.2852,6948.2422,8967.7734,-12925.2930,0
5.586437,-14730.4688,15315.9180,15519.0430,-14644.5312,0
5.590344,-13434.5703,-11066.4062,-8690.4297,-10183.5938,0
5.594250,-12941.8945,12937.5000,12967.2852,-8935.0586,0
5.610000,-14808.5938,15003.4180,15425.2930,-15105.4688,0
5.613906,13689.9414,-15566.4062,-11315.4297,11315.4297,0
5.617812,-2938.4766,-3064.4531,-13037.5977,3053.2227,0
5.621719,-14980.4688,14894.0430,15456.5430,-14996.0938,0
5.625625,-12307.1289,-13564.9414,-6938.9648,-12182.1289,0
5.629531,-10923.8281,-11050.2930,964.3555,11075.1953,0
5.633437,-14988.2812,15136.2305,15425.2930,-14910.1562,0
5.637344,14190.4297,-12691.4062,-9940.4297,-13558.1055,0
5.641250,13057.1289,-3056.1523,-7041.0156,13072.7539,0
5.656000,-14972.6562,15120.6055,15245.6055,-14957.0312,0
5.659906,15691.4062,15932.6172,-12815.9180,-15059.0820,0
5.663812,3065.4297,12931.1523,-15047.3633,-8938.4766,0
5.667719,-15089.8438,15019.0430,15472.1680,-14808.5938,0
5.671625,10939.4531,-14066.4062,-9190.9180,-13808.5938,0
5.675531,5032.7148,-13062.5000,-7045.8984,13062.5000,0
5.679437,-15167.9688,15269.0430,15589.3555,-14707.0312,0
5.683344,15189.9414,-14817.3828,-5565.9180,-11183.5938,0
5.687250,-8958.0078,-1062.9883,-3059.5703,-10933.1055,0
5.703000,-15214.8438,15081.5430,15198.7305,-14816.4062,0
5.706906,12690.4297,-12066.4062,-9439.4531,-10682.1289,0
5.710812,-10943.3594,-13051.7578,-7018.5547,7092.7734,0
5.714719,-15347.6562,15300.2930,15511.2305,-14628.9062,0
5.718625,8314.9414,-12815.4297,-10314.9414,-11557.1289,0
5.722531,3038.0859,12944.8242,8963.3789,3083.4961,0
5.726437,-15496.0938,14933.1055,15284.6680,-14871.0938,0
5.730344,7689.4531,14808.5938,-12440.4297,-14307.6172,0
5.734250,-2956.0547,-5045.4102,-3028.8086,15094.7266,0
5.750000,-15371.0938,15112.7930,15401.8555,-14597.6562,0
5.753906,10064.4531,-13191.4062,-9689.9414,-10058.1055,0
5.757812,-4949.7070,-11067.3828,8948.2422,-12930.1758,0
5.761719,-15121.0938,14917.4805,15261.2305,-14785.1562,0
5.765625,13065.9180,14058.5938,-9440.4297,-11431.6406,0
5.769531,3070.3125,960.9375,10963.8672,1104.4922,0
5.773438,-15003.9062,15378.4180,15394.0430,-14574.2188,0
5.777344,12315.9180,-14190.9180,-12315.4297,-13433.1055,0
5.781250,7053.7109,-13049.8047,-5044.9219,-14916.0156,0
5.844000,-14566.4062,15276.8555,15464.3555,-14308.5938,0
5.844000,-14566.4062,15276.8555,15464.3555,-14308.5938,0
5.847906,-8932.6172,-11315.9180,-7439.9414,-7557.1289,0
5.847906,-8932.6172,-11315.9180,-7439.9414,-7557.1289,0
5.851812,-927.7344,4932.1289,-11041.5039,11081.5430,0
5.851812,-927.7344,4932.1289,-11041.5039,11081.5430,0
5.855719,-14824.2188,14987.7930,15370.6055,-14652.3438,0
5.855719,-14824.2188,14987.7930,15370.6055,-14652.3438,0
5.859625,-11057.6172,-12190.4297,-9065.4297,-9307.1289,0
5.859625,-11057.6172,-12190.4297,-9065.4297,-9307.1289,0
5.863531,13089.8438,-15040.5273,-7039.5508,1092.2852,0
5.863531,13089.8438,-15040.5273,-7039.5508,1092.2852,0
5.867437,-14652.3438,15128.4180,15198.7305,-14746.0938,0
5.867437,-14652.3438,15128.4180,15198.7305,-14746.0938,0
5.871344,-10807.6172,-15066.4062,-12940.4297,-12182.6172,0
5.871344,-10807.6172,-15066.4062,-12940.4297,-12182.6172,0
5.875250,3073.2422,12940.4297,-15044.4336,7073.2422,0
5.875250,3073.2422,12940.4297,-15044.4336,7073.2422,0
5.906000,-14683.5938,15097.1680,15386.2305,-11629.0235,0
5.909906,-8431.1523,13307.6172,-9439.9414,-2540.3126,0
5.913812,-8884.7656,-5046.3867,10968.2617,-12330.1561,0
5.917719,-14355.4688,15417.4805,15511.2305,-9089.0235,0
5.921625,-7181.1523,-10565.9180,-7939.9414,9700.0974,0
5.925531,-8889.1602,-7050.7812,2950.6836,7294.6575,0
5.929437,-14003.9062,15401.8555,15401.8555,404.3454,0
5.933344,-1556.1523,-9441.4062,-8690.9180,-6485.9667,0
5.937250,15111.3281,14937.5000,-13051.2695,-13376.2788,0
5.938000,-14238.2812,15089.3555,15206.5430,-14699.2188,0
5.941906,-2930.1758,-12690.9180,-8063.4766,-9556.6406,0
5.945812,9117.6758,4945.8008,-15022.9492,-14900.3906,0
5.949719,-14292.9688,15245.6055,15276.8555,-14566.4062,0
5.953625,-5305.6641,-12690.9180,-12440.4297,-9682.1289,0
5.957531,15103.0273,8935.5469,-5041.0156,7090.8203,0
5.961437,-14636.7188,14792.4805,15253.4180,-14566.4062,0
5.965344,-8431.6406,15058.5938,-12190.9180,-9932.6172,0
5.969250,-8897.9492,2945.8008,-5043.9453,-12913.5742,0
5.985000,-14276.8555,15175.2930,15347.1680,-14652.3438,0
5.988906,194.8242,-13941.4062,-9065.4297,-7806.6406,0
5.992812,11098.6328,-5067.8711,-3054.1992,15083.4961,0
5.996719,-14480.4688,14979.9805,15128.4180,-14613.2812,0
6.000625,-8806.6406,-15691.4062,-12065.4297,-10808.1055,0
6.004531,-10893.5547,12946.2891,-15049.3164,-924.3164,0
6.008437,-14175.7812,15065.9180,15167.4805,-14746.0938,0
6.012344,-3056.6406,-15691.8945,-12315.9180,-12809.0820,0
6.016250,-2898.4375,6933.1055,-9052.7344,-8944.3359,0
6.031000,-14230.4688,15073.7305,15175.2930,-14957.0312,0
6.034906,-3305.6641,-13066.4062,-9815.4297,-11932.6172,0
6.038812,11107.4219,8933.1055,-3058.1055,3073.7305,0
6.042719,-14433.5938,15065.9180,14972.1680,-14855.4688,0
6.046625,-3055.1758,-10940.4297,-12565.4297,-8306.6406,0
6.050531,-8896.9727,-11074.2188,-1047.3633,-4921.3867,0
6.054437,-14339.8438,14878.4180,15417.4805,-14574.2188,0
6.058344,-3306.1523,-14566.8945,-6814.9414,-5557.6172,0
6.062250,13110.3516,-3063.4766,-9041.0156,-4918.9453,0
6.078000,-14136.7188,14964.3555,15237.7930,-14511.7188,0
6.081906,-5681.1523,-14190.9180,-12565.9180,-9682.6172,0
6.085812,9109.3750,-7058.5938,12944.3359,-14917.4805,0
6.089719,-14199.2188,15120.6055,15081.5430,-14691.4062,0
6.093625,-1430.1758,-12190.9180,-13565.4297,-11432.6172,0
6.097531,11118.1641,12945.3125,-1028.3203,-14911.1328,0
6.101437,-13995.6055,15214.3555,15690.9180,-14503.9062,0
6.105344,2694.8242,-8940.9180,-4064.4531,-6556.6406,0
6.109250,-8898.4375,-3064.9414,950.6836,-14923.8281,0
6.110000,-14183.1055,15058.1055,15245.6055,-14761.7188,0
6.113906,569.3359,-14066.4062,-13190.4297,-11182.6172,0
6.117812,-4898.9258,-11069.8242,2959.4727,-8913.0859,0
6.121719,-14300.7812,15050.2930,15315.9180,-14644.5312,0
6.125625,-3180.6641,-11190.4297,-10190.4297,-9807.1289,0
6.129531,-8875.9766,14958.4961,-3042.9688,13104.9805,0
6.133437,-13910.1562,15331.5430,15440.9180,-14207.0312,0
6.137344,-1556.1523,-14441.8945,-10941.4062,-6682.6172,0
6.141250,13108.3984,12944.3359,6944.8242,15080.0781,0
6.172000,-14167.9688,14416.8956,15362.7930,-14605.4688,0
6.175906,-3180.1758,14603.9585,-9564.9414,-10307.1289,0
6.179812,-12878.9062,14791.0215,6956.5430,-906.2500,0
6.183719,-14417.9688,14978.0845,15300.2930,-14699.2188,0
6.187625,-5931.1523,15165.1474,-8189.9414,-11557.6172,0
6.191531,-4886.2305,-12388.4531,4959.4727,-907.2266,0
6.195437,-14105.4688,-13268.2813,15495.6055,-14417.9688,0
6.199344,-3055.6641,12444.4023,-10315.4297,-6182.1289,0
6.203250,-14881.3477,-9792.0117,8962.4023,-4905.2734,0
6.235000,-13933.1055,15050.2930,15503.4180,-6942.6484,0
6.238906,1945.3125,-14566.4062,-7564.9414,5008.3281,0
6.242812,11131.8359,-7054.1992,-13029.7852,-14440.6719,0
6.246719,-13800.7812,15229.9805,15519.0430,-10853.8398,0
6.250625,-430.6641,-12440.9180,-13065.9180,10767.4114,0
6.254531,11126.4648,-15043.9453,8965.3320,7510.4663,0
6.258437,-13988.2812,15128.4180,15323.7305,4253.5212,0
6.262344,-4056.1523,15183.5938,-9064.4531,996.5761,0
6.266250,-12886.7188,4940.4297,12969.2383,-2260.3690,0
6.281000,-14199.2188,15104.9805,15636.2305,-14558.5938,0
6.284906,-3431.1523,-14316.4062,-6689.4531,-9182.6172,0
6.288812,-897.9492,4938.4766,4972.6562,-10916.9922,0
6.292719,-14464.8438,15089.3555,15401.8555,-14722.6562,0
6.296625,-7056.1523,-14191.8945,-11065.4297,-12432.6172,0
6.300531,-8890.6250,-7061.0352,-11037.1094,3087.4023,0
6.304437,-14386.7188,15167.4805,15456.5430,-14644.5312,0
6.308344,-7431.1523,-14066.4062,-11690.4297,-11307.1289,0
6.312250,13100.0977,931.6406,-13036.6211,-6913.0859,0
6.328000,-14386.7188,-9490.2345,-7353.1642,-11524.8633,0
6.331906,-7432.6172,-14918.2031,7339.1798,5893.7110,0
6.335812,13085.4492,10220.0587,14777.0899,-10773.4376,0
6.339719,-14675.7812,15789.7656,-4818.5938,-11302.7734,0
6.343625,-10932.1289,-6736.9728,1104.2579,5913.5352,0
6.347531,5083.0078,-5588.8672,5579.2847,4108.7850,0
6.351437,-14667.9688,918.6431,8685.9015,-1803.0270,0
6.355344,-10182.6172,7426.1533,11792.5183,-7714.8389,0
6.359250,5074.2188,13933.6635,14899.1350,-13626.6508,0
6.360000,-14769.5312,15183.1055,15495.6055,-14761.7188,0
6.363906,-11307.1289,-10940.4297,-7564.4531,-9681.6406,0
6.367812,-14907.7148,6955.0781,12966.3086,1088.3789,0
6.371719,-14707.0312,15370.6055,15323.7305,-14574.2188,0
6.375625,-10557.1289,-10440.4297,-12065.4297,-7056.6406,0
6.379531,-8909.1797,14959.9609,959.9609,-12897.4609,0
6.383437,-14628.9062,15206.5430,15331.5430,-14425.7812,0
6.387344,-9181.6406,-14315.4297,-10564.4531,-5930.6641,0
6.391250,1083.9844,4951.1719,-7032.2266,15093.7500,0
6.406000,-14722.6562,15261.2305,15425.2930,-14582.0312,0
6.409906,-10807.6172,-10190.4297,-8190.4297,-6431.1523,0
6.413812,15065.4297,939.4531,-1050.7812,-10906.2500,0
6.417719,-14964.8438,15050.2930,15308.1055,-14566.4062,0
6.421625,-13059.0820,-12691.4062,-9940.4297,-7057.1289,0
6.425531,-935.0586,10935.0586,-15043.9453,5087.4023,0
6.429437,-14800.7812,15128.4180,15292.4805,-14433.5938,0
6.433344,-13933.1055,-13191.4062,-10565.4297,-5806.6406,0
6.437250,15080.5664,-9063.9648,-11038.5742,-893.0664,0
6.453000,-14785.1562,15144.0430,15440.9180,-14246.0938,0
6.456906,-13433.1055,-11565.9180,-10064.4531,-6056.6406,0
6.460812,-6941.8945,-9050.7812,8962.8906,15085.9375,0
6.464719,-15347.6562,15159.6680,15128.4180,-14792.9688,0
6.468625,11315.4297,-14941.8945,-14315.9180,-14058.5938,0
6.472531,-2944.8242,934.5703,-1038.0859,-12925.2930,0
6.476437,-15136.7188,15190.9180,15464.3555,-14683.5938,0
6.480344,14940.4297,-12441.4062,-7814.9414,-10433.1055,0
6.484250,13045.8984,-15063.9648,952.1484,15067.3828,0
6.500000,-15089.8438,14894.0430,15276.8555,-14730.4688,0
6.503906,-15684.0820,15809.0820,-9689.9414,-9807.6172,0
6.507812,15054.6875,8946.7773,-11029.7852,15085.9375,0
6.511719,-15011.7188,15136.2305,15495.6055,-14558.5938,0
6.515625,15565.9180,15933.1055,-8689.4531,-9932.1289,0
6.519531,-4922.3633,-15051.7578,-7016.6016,-4886.7188,0
6.523438,-14769.5312,14995.6055,15519.0430,-14261.7188,0
6.527344,-13683.5938,15684.0820,-9440.4297,-8807.1289,0
6.531250,-933.1055,-5050.7812,-15048.3398,13082.5195,0
6.563000,-14933.5938,15104.9805,-10488.2929,-5494.8281,0
6.566906,-12933.5938,-12940.9180,15005.2070,12237.1562,0
6.570812,9062.5000,-13052.2461,13139.1679,-14577.6719,0
6.574719,-14824.2188,15222.1680,-7615.7070,-13556.5530,0
6.578625,-11181.6406,-12690.9180,-837.2505,-10768.7550,0
6.582531,9087.8906,941.4062,1183.5779,-6253.6134,0
6.586437,-14707.0312,15034.6680,3204.4063,6994.8438,0
6.590344,-11432.6172,-14690.4297,5225.2346,-14372.5781,0
6.594250,-2897.4609,10962.4023,7246.0630,-12280.6055,0
6.610000,-14410.1562,15151.8555,15394.0430,-9028.2838,0
6.613906,-6056.6406,14933.5938,-12190.9180,-9529.0903,0
6.617812,-12906.2500,950.6836,-11040.5273,-10029.8968,0
6.621719,-14300.7812,15347.1680,15276.8555,-10530.7033,0
6.625625,-6306.1523,-12315.9180,-13565.4297,-11031.5098,0
6.629531,11116.6992,2940.9180,12962.8906,-11532.3163,0
6.633437,-14160.1562,14964.3555,15464.3555,-12033.1228,0
6.637344,-4055.6641,-13190.4297,-9314.9414,-12533.9293,0
6.641250,1107.4219,14953.6133,4964.8438,-13034.7359,0
6.656000,-14363.2812,15175.2930,15386.2305,-14925.7812,0
6.659906,-3930.1758,-13440.4297,-9439.4531,-15933.1055,0
6.663812,15109.3750,-11057.6172,-9032.7148,11075.6836,0
6.667719,-14464.8438,14925.2930,15253.4180,-14964.8438,0
6.671625,-7806.1523,-14065.4297,-13315.9180,15816.4062,0
6.675531,-8883.3008,2946.7773,-3040.5273,-921.8750,0
6.679437,-14292.9688,15065.9180,15503.4180,-14691.4062,0
6.683344,-4555.6641,-13066.8945,-6314.4531,-7806.6406,0
6.687250,-4884.2773,-7061.5234,6964.8438,7085.4492,0
6.703000,-14292.9688,15144.0430,15425.2930,11045.9962,0
6.706906,-9682.1289,14933.1055,-9940.4297,-8320.6446,0
6.710812,15114.7461,937.0117,14976.5625,-14778.9844,0
6.714719,-14246.0938,15120.6055,15706.5430,-14860.6641,0
6.718625,-9682.1289,13932.6172,-12940.4297,-9903.6914,0
6.722531,-909.1797,-13062.5000,965.3320,-10319.2342,0
6.726437,-14558.5938,15120.6055,15464.3555,-11926.3722,0
6.730344,-5056.1523,-11566.4062,-5064.9414,-13533.5102,0
6.734250,1083.0078,-13069.3359,-3054.1992,-15140.6482,0
6.735000,-14738.2812,14909.6680,15347.1680,-15449.2188,0
6.738906,-11431.6406,15558.5938,-7190.4297,9814.9414,0
6.742812,11112.7930,4945.3125,-5044.4336,-14944.8242,0
6.746719,-14441.4062,15167.4805,15362.7930,-15175.7812,0
6.750625,-11432.1289,-13565.9180,-9439.9414,10690.4297,0
6.754531,-12918.9453,8939.4531,-5040.0391,3033.6914,0
6.758437,-14988.2812,14972.1680,15417.4805,-15652.3438,0
6.762344,-12182.6172,-13940.9180,-8315.4297,8814.9414,0
6.766250,-2922.3633,8936.0352,-11050.2930,1029.2969,0
6.781000,-14746.0938,15073.7305,15198.7305,-15605.4688,0
6.784906,-12558.1055,-12816.4062,-10064.9414,9314.4531,0
6.788812,11084.4727,8935.5469,955.0781,-2964.3555,0
6.792719,-14300.7812,15183.1055,15440.9180,-15261.7188,0
6.796625,-5307.6172,-13816.4062,-8940.4297,9688.9648,0
6.800531,-4923.3398,2938.9648,14960.4492,-14974.6094,0
6.804437,-14699.2188,15058.1055,15300.2930,-15566.4062,0
6.808344,-9308.1055,-14316.8945,-9689.9414,8813.9648,0
6.812250,-12915.0391,-5057.1289,2962.8906,-4968.2617,0
6.828000,-14316.4062,15222.1680,15511.2305,-15410.1562,0
6.831906,-9682.6172,-15565.9180,-9689.9414,4688.4766,0
6.835812,9078.6133,6949.7070,-5034.1797,7015.6250,0
6.839719,-14972.6562,15081.5430,15245.6055,-15941.4062,0
6.843625,-15308.1055,-13190.4297,-11815.4297,812.9883,0
6.847531,-8921.3867,14962.4023,12953.6133,1011.7188,0
6.851437,-14722.6562,15167.4805,15362.7930,-15808.5938,0
6.855344,-11808.1055,-13815.4297,-8690.4297,2062.5000,0
6.859250,-10916.5039,6942.3828,-1035.6445,7005.3711,0
6.875000,-14667.9688,15058.1055,15409.6680,-15902.8320,0
6.878906,-12432.6172,-12940.9180,-12440.9180,-63.4766,0
6.882812,5083.9844,6949.7070,-1038.5742,-1016.6016,0
6.886719,-14675.7812,15222.1680,15370.6055,15604.9805,0
6.890625,-7681.1523,-10189.9414,-8689.9414,-4562.9883,0
6.894531,7085.9375,4942.8711,-9049.8047,8983.8867,0
6.898438,-14800.7812,15058.1055,15214.3555,15698.7305,0
6.902344,-10807.1289,-13440.4297,-12565.9180,-2312.9883,0
6.906250,-4922.3633,-9039.5508,-1042.9688,-13016.6016,0
6.938000,-14753.9062,15315.9180,-9571.5703,-7785.3594,0
6.941906,-10807.6172,-10440.4297,2351.1055,9568.9453,0
6.945812,7084.9609,962.4023,13096.1054,12981.7148,0
6.949719,-14628.9062,15479.9805,-6420.1601,-8463.7656,0
6.953625,-10557.1289,-10565.4297,14957.5234,-10422.7237,0
6.957531,-12915.0391,-7045.4102,14998.2535,-3921.1474,0
6.961437,-14777.3438,15089.3555,15038.9837,2580.4288,0
6.965344,-11933.1055,-13190.9180,15079.7138,9082.0051,0
6.969250,11060.5469,10948.7305,15120.4440,13496.6056,0
6.985000,-15066.4062,15315.9180,15284.6680,-2883.3867,0
6.988906,15315.9180,-11440.9180,-12815.9180,-13227.2148,0
6.992812,-12932.6172,-7048.8281,8950.1953,-13786.4375,0
6.996719,-14792.9688,15151.8555,15253.4180,3895.6797,0
7.000625,-13058.1055,-13565.4297,-11314.9414,6746.0521,0
7.004531,9076.6602,14959.9609,2970.7031,3851.5342,0
7.008437,-14761.7188,15378.4180,15558.1055,957.0164,0
7.012344,-14059.0820,-12690.9180,-9189.9414,-1937.5015,0
7.016250,-8933.1055,8953.6133,974.6094,-4832.0194,0
7.031000,-14949.2188,15073.7305,15597.1680,-15761.7188,0
7.034906,15316.4062,15433.1055,-8564.9414,2438.4766,0
7.038812,-4916.9922,-1041.5039,-15026.3672,3021.9727,0
7.042719,-14566.4062,15620.6055,15581.5430,-15449.2188,0
7.046625,-14683.5938,-11690.9180,-11439.9414,7688.9648,0
7.050531,1083.0078,-7035.1562,10969.7266,13041.9922,0
7.054437,-14738.2812,15354.9805,15472.1680,-15222.6562,0
7.058344,-13433.5938,-8189.9414,-5689.4531,12189.9414,0
7.062250,-4958.4961,14953.6133,-5024.4141,13020.5078,0
7.063000,-15769.5312,15300.2930,15644.0430,15870.6055,0
7.066906,1187.5000,-11939.9414,-4813.4766,-4439.4531,0
7.070812,6981.9336,12965.8203,989.7461,14948.2422,0
7.074719,15222.1680,15050.2930,15917.9688,14831.5430,0
7.078625,-13442.3828,-14190.9180,312.5000,13431.6406,0
7.082531,-11091.3086,10942.8711,-3000.4883,6887.6953,0
7.086437,14558.1055,15183.1055,15823.7305,14433.1055,0
7.090344,10057.1289,-12565.9180,-3938.4766,10306.6406,0
7.094250,8913.0859,941.8945,6985.8398,-9088.3789,0
7.110000,14753.4180,15229.9805,15854.9805,14800.2930,0
7.113906,8682.1289,14557.6172,-3062.5000,10557.6172,0
7.117812,10949.7070,930.1758,9026.3672,-5031.2500,0
7.121719,15253.4180,14534.6680,-15809.0820,15503.4180,0
7.125625,-10313.4766,5306.6406,-812.9883,-11438.9648,0
7.129531,-12995.6055,-9082.0312,-9015.1367,15008.7891,0
7.133437,-15925.7812,14862.7930,15651.8555,-15777.3438,0
7.137344,4188.9648,-15942.3828,-4063.4766,4438.9648,0
7.141250,-8970.7031,-13080.5664,-9009.2773,-6951.6602,0
7.156000,-15339.8438,14808.1055,15784.6680,-14972.6562,0
7.159906,-15557.6172,15057.6172,-5438.9648,-12807.1289,0
7.163812,11089.3555,-5073.2422,-11022.9492,-8901.8555,0
7.167719,-14378.9062,15050.2930,15573.7305,-14410.1562,0
7.171625,-8433.1055,13806.6406,-7190.4297,-6056.6406,0
7.175531,-915.0391,-7077.6367,-11048.3398,1095.7031,0
7.179437,-14332.0312,14847.1680,15370.6055,-14292.9688,0
7.183344,-179.6875,14058.1055,-9564.9414,-4055.6641,0
7.187250,15117.1875,6928.2227,-13040.5273,-887.6953,0
7.219000,-14097.1680,14870.6055,-7811.4961,1404.1719,0
7.222906,1945.3125,15433.1055,-1326.5390,-5732.0899,0
7.226812,-887.2070,10917.4805,12231.8242,-12525.2617,0
7.230719,-14065.9180,14886.2305,-11743.8867,171.2617,0
7.234625,2319.8242,-13316.4062,9092.4247,766.2179,0
7.238531,-8876.4648,8928.2227,10629.9293,-2986.3543,0
7.242437,-13925.7812,14917.4805,12167.4340,-6738.9265,0
7.246344,-555.1758,15433.1055,13704.9386,-10491.4987,0
7.250000,-13910.1562,14784.6680,15144.0430,-14003.9062,0
7.250250,9134.2773,6927.7344,13314.6056,-13223.1563,0
7.253906,-1179.6875,13558.1055,-13440.9180,-1804.6875,0
7.257812,-866.6992,-7061.5234,-11049.3164,-8869.1406,0
7.261719,-14066.4062,14909.6680,15112.7930,-14136.7188,0
7.265625,-1805.6641,13683.1055,-12564.9414,-4930.6641,0
7.269531,-14894.0430,12934.5703,954.5898,3104.0039,0
7.273438,-14300.7812,14956.5430,15175.2930,-14371.0938,0
7.277344,-3555.6641,15683.1055,-12441.4062,-3680.6641,0
7.281250,-12887.6953,8929.6875,-9056.1523,5117.6758,0
7.297000,-14230.4688,14909.6680,15300.2930,-14128.9062,0
7.300906,-3304.6875,14933.5938,-11939.9414,-3555.1758,0
7.304812,9126.4648,14944.8242,6971.6797,-8874.5117,0
7.308719,-14230.4688,15136.2305,15300.2930,-14121.0938,0
7.312625,-2556.6406,-13440.9180,-11565.4297,-2055.6641,0
7.316531,-8921.8750,8937.5000,-1046.8750,-10894.5312,0
7.320437,-14675.7812,14870.6055,15175.2930,-14300.7812,0
7.324344,-10557.6172,15433.5938,-13065.9180,-4555.6641,0
7.328250,-4912.5977,-11057.6172,-11046.8750,3112.3047,0
7.360000,-14519.5312,15073.7305,15300.2930,-8296.3906,0
7.363906,-5431.1523,-13190.4297,-8313.9648,-13082.3906,0
7.367812,-6895.9961,-15043.4570,6973.1445,-14610.8594,0
7.371719,-14386.7188,15229.9805,15417.4805,-13113.6367,0
7.375625,-6181.6406,-14941.4062,-9939.4531,-9002.6975,0
7.379531,-6907.7148,10947.2656,12972.6562,-9778.4766,0
7.383437,-14730.4688,15104.9805,15354.9805,-10554.2558,0
7.387344,-15183.5938,15058.1055,-12690.4297,-11330.0350,0
7.391250,7058.5938,-1062.0117,-9039.5508,-12105.8141,0
7.406000,-15167.9688,14933.1055,15378.4180,-15035.1562,0
7.409906,13565.4297,15933.1055,-9940.9180,15815.9180,0
7.413812,-2951.1719,-3065.4297,-7054.1992,-4942.3828,0
7.417719,-15230.4688,15034.6680,15206.5430,-15097.6562,0
7.421625,15065.9180,-13316.4062,-9690.4297,15440.9180,0
7.425531,-929.6875,12936.5234,-3044.9219,11058.5938,0
7.429437,-15050.7812,14995.6055,15323.7305,-15066.4062,0
7.433344,11440.4297,13932.6172,-9439.9414,12314.9414,0
7.437250,11065.9180,-13064.4531,14964.8438,-12939.4531,0
7.438000,-14722.6562,15128.4180,15448.7305,-13026.5997,0
7.441906,-11557.1289,-13815.9180,-8814.9414,-13480.4881,0
7.445812,11078.1250,4950.1953,12962.8906,-13934.3765,0
7.449719,-14980.4688,15089.3555,15495.6055,-14388.2650,0
7.453625,-10432.1289,-13190.9180,-4063.9648,-14695.7813,0
7.457531,-4930.6641,-3059.5703,-5037.1094,-12808.5938,0
7.461437,-14957.0312,15065.9180,15331.5430,-6557.3437,0
7.465344,-13183.1055,-13315.9180,-11439.9414,-14738.2031,0
7.469250,-4918.4570,947.2656,-13016.1133,-11974.7461,0
7.485000,-14933.5938,15065.9180,15690.9180,-14800.7812,0
7.488906,13315.4297,15559.0820,-8439.9414,-14559.0820,0
7.492812,11064.4531,941.4062,-5021.9727,-8924.3164,0
7.496719,-14777.3438,15206.5430,15550.2930,-14746.0938,0
7.500625,14690.4297,-9940.4297,-8314.4531,12189.4531,0
7.504531,-14952.1484,945.3125,12969.7266,13036.6211,0
7.508437,-15160.1562,15151.8555,15550.2930,-15199.2188,0
7.512344,14190.4297,-13690.9180,-9940.9180,12688.9648,0
7.516250,-8939.4531,4939.4531,-7045.4102,-8973.1445,0
7.531000,-15074.2188,14831.5430,15362.7930,-15324.2188,0
7.534906,13190.9180,15434.0820,-9815.4297,10940.4297,0
7.538812,-8916.9922,8959.4727,-3032.7148,5067.3828,0
7.542719,-14621.0938,15292.4805,15456.5430,-14871.0938,0
7.546625,-12433.1055,-14065.9180,-9190.4297,-15058.5938,0
7.550531,7070.3125,14945.3125,-3043.4570,7064.4531,0
7.554437,-14644.5312,15167.4805,15331.5430,-14847.6562,0
7.558344,-11182.6172,-12690.9180,-11064.4531,-15308.5938,0
7.562250,5090.3320,-7053.2227,10966.7969,-10931.6406,0
7.610000,-14527.3438,5443.4291,3580.3339,348.6793,0
7.613906,-8057.6172,8022.5278,6740.2353,-3509.0090,0
7.617812,-2918.9453,10601.6264,9900.1368,-7366.6973,0
7.621719,-14464.8438,13180.7251,13060.0382,-11224.3856,0
7.625000,-14082.0312,15347.1680,15714.3555,-14464.8438,0
7.625625,-7682.6172,10921.1524,12189.6680,-13879.8438,0
7.628906,-4681.6406,-12315.4297,-6314.9414,-10808.5938,0
7.629531,-12918.4570,-7952.5392,-3550.9571,-9548.6719,0
7.632812,15087.8906,14952.6367,10959.9609,-2934.0820,0
7.633437,-14589.8438,15010.7617,11671.9140,-4849.0039,0
7.636719,-14730.4688,15315.9180,15409.6680,-14902.3438,0
7.637344,-5806.1523,11074.7462,11573.6524,-14547.2656,0
7.640625,-10432.6172,-11191.4062,-8565.4297,-12683.1055,0
7.641250,-4888.6719,-8290.7813,-7682.0703,-10484.1211,0
7.644531,7075.1953,6937.5000,-3044.4336,1060.5469,0
7.648438,-14707.0312,15175.2930,15409.6680,-14871.0938,0
7.652344,-10183.1055,-12816.4062,-7314.9414,-13310.0586,0
7.656250,15073.7305,-1053.7109,2952.1484,-10964.8438,0
7.672000,-14699.2188,6962.0179,15417.4805,-15207.0312,0
7.675906,-10432.6172,8950.0458,-6564.4531,15065.9180,0
7.679812,13081.5430,10938.0738,2966.7969,15063.4766,0
7.683719,-14566.4062,12926.1018,15565.9180,-14902.3438,0
7.687625,-12058.1055,14914.1298,-8064.9414,14565.4297,0
7.691531,-12921.8750,-9343.6289,2971.6797,-2943.8477,0
7.695437,-14832.0312,10561.1836,15714.3555,-15121.0938,0
7.699344,-14058.5938,14820.4805,-8189.9414,13315.4297,0
7.703250,-6930.6641,-10709.2031,-9022.9492,-940.4297,0
7.735000,-14910.1562,15198.7305,15612.7930,-11803.0742,0
7.738906,-13058.1055,13808.1055,-7189.4531,4978.0586,0
7.742812,13063.4766,-13055.1758,4970.7031,-14470.3750,0
7.746719,-14894.5312,14972.1680,15534.6680,-11577.0391,0
7.750625,-12558.5938,15559.0820,-8564.9414,-12987.8976,0
7.754531,-2928.2227,952.1484,10972.1680,-13517.9589,0
7.758437,-14847.6562,15190.9180,15425.2930,-14048.0201,0
7.762344,-11932.6172,-12440.4297,-11439.9414,-14578.0814,0
7.766000,-15042.9688,15042.4805,15284.6680,-15074.2188,0
7.766250,3064.4531,14946.2891,-7041.0156,-15001.1563,0
7.769906,-13056.6406,-14566.4062,-10314.9414,-13932.6172,0
7.773813,1075.1953,-5073.7305,-9029.2969,3069.3359,0
7.777719,-15199.2188,14714.3555,15464.3555,-14957.0312,0
7.781625,15191.4062,-14815.9180,-9689.9414,-13057.6172,0
7.785531,-12932.1289,-1050.7812,10962.8906,5075.6836,0
7.789438,-14886.7188,15198.7305,15479.9805,-14675.7812,0
7.793344,-14058.5938,-12565.9180,-5689.4531,-8182.1289,0
7.797250,-8928.7109,942.3828,-15029.2969,5079.1016,0
7.844000,-14746.0938,15144.0430,-9648.3750,13035.3945,0
7.847906,-14058.1055,-12940.9180,562.2149,-5859.5274,0
7.851812,9078.6133,-15051.7578,13483.7617,-14245.8750,0
7.855719,-14996.0938,15034.6680,-3559.5273,-9610.4297,0
7.859625,12566.4062,-15565.9180,14205.0781,-11967.2852,0
7.860000,-15191.4062,14940.9180,15448.7305,-15003.9062,0
7.863531,15077.6367,-5053.7109,-3998.7461,-13357.9023,0
7.863906,-15682.6172,-15691.4062,-6063.9648,-13183.1055,0
7.867437,-14832.0312,15065.9180,3910.9336,-12956.2227,0
7.867812,3080.0781,942.8711,4970.2148,-12932.1289,0
7.871344,-11307.6172,-11690.9180,14358.0430,-14734.3906,0
7.871719,-14847.6562,15120.6055,15354.9805,-14925.7812,0
7.875250,-14939.4531,-15067.3828,-8528.6289,11282.7148,0
7.875625,14815.9180,15933.5938,-11064.9414,14065.9180,0
7.879531,7050.2930,-5058.1055,14969.7266,3063.9648,0
7.883437,-15214.8438,14948.7305,15472.1680,-14980.4688,0
7.887344,-13807.1289,-11440.4297,-5188.4766,-11057.6172,0
7.891250,5075.1953,12937.9883,10966.3086,-929.6875,0
7.906000,-14855.4688,15159.6680,15331.5430,-14769.5312,0
7.909906,-13683.1055,-14816.8945,-10814.9414,-11933.1055,0
7.913812,7071.2891,-3062.9883,2967.7734,-6927.2461,0
7.917719,-14800.7812,14940.9180,15464.3555,-14832.0312,0
7.921625,-13934.0820,15933.5938,-10189.9414,-11932.6172,0
7.925531,-8932.6172,-3051.7578,-11025.3906,13080.0781,0
7.929437,-14808.5938,15081.5430,15526.8555,-14730.4688,0
7.933344,-12057.6172,-14190.4297,-7814.4531,-9306.6406,0
7.937250,-914.5508,10958.9844,2960.9375,9089.8438,0
7.953000,-14613.2812,15284.6680,15323.7305,-14613.2812,0
7.956906,-12933.1055,-12315.4297,-9814.9414,-9807.6172,0
7.960812,3080.0781,2954.5898,-9029.7852,-10914.5508,0
7.964719,-14800.7812,15026.8555,15464.3555,-14824.2188,0
7.968625,-13308.5938,-15565.9180,-8689.9414,-15058.1055,0
7.972531,-2933.1055,-11049.3164,-15035.1562,11068.8477,0
7.976437,-14917.9688,15144.0430,15550.2930,-14941.4062,0
7.980344,-10057.1289,-11315.4297,-4938.9648,-13558.1055,0
7.984250,-4929.1992,-1050.2930,958.9844,-12937.0117,0
8.016000,-14894.5312,15253.4180,-4937.0781,-11814.0742,0
8.019906,-15684.0820,-11315.9180,2377.8438,-425.6914,0
8.023813,9056.6406,-15065.4297,13317.8554,-14063.6875,0
8.027719,-15128.9062,15081.5430,-6960.8476,-7045.1172,0
8.031625,12689.9414,-13816.8945,7066.5370,12420.0381,1
8.035531,3029.7852,-9054.6875,8100.4100,5514.1039,1
8.039438,-15425.7812,15175.2930,9134.2831,-1391.8302,1
8.043344,11939.9414,-15691.4062,10168.1562,-8297.7644,1
8.047250,11044.9219,-15052.7344,11202.0293,-14708.7187,1
8.063000,-15277.3438,14917.4805,15370.6055,-12492.5703,1
8.066906,10065.4297,12933.1055,-9689.4531,-475.0195,1
8.070812,5056.1523,-5049.8047,2962.8906,-14913.0625,1
8.074719,-15199.2188,15136.2305,15378.4180,-11644.1640,1
8.078625,13440.9180,15433.5938,-7188.9648,10470.5287,1
8.082531,-2953.6133,12936.5234,8968.2617,4095.6247,1
8.086437,-15394.5312,14847.1680,15417.4805,-2279.2794,1
8.090344,13441.4062,14684.0820,-8439.4531,-8654.1835,1
8.094250,7069.3359,4955.5664,967.7734,-14321.0000,1
8.110000,-14738.2812,15339.3555,15526.8555,-9112.2578,1
8.113906,-14308.5938,-12315.9180,-5688.4766,-5859.6602,1
8.117812,-10925.7812,2945.8008,4986.3281,-14274.8594,1
8.121719,-14910.1562,15183.1055,15683.1055,-9374.4336,1
8.125625,-15183.5938,-13816.4062,-6689.9414,-3081.8764,1
8.129531,-8935.5469,-7052.2461,-1027.8320,-4595.9701,1
8.133437,-14917.9688,15245.6055,15683.1055,-6110.0638,1
8.137344,-13434.0820,-12066.4062,-5314.9414,-7624.1574,1
8.141250,-6939.4531,6947.2656,6957.5195,-9138.2511,1
8.156000,-14808.5938,15370.6055,15573.7305,-14855.4688,1
8.159906,14065.4297,-14567.3828,-7064.9414,14190.4297,1
8.163812,9055.6641,-11073.7305,-5028.3203,7058.5938,1
8.167719,-15113.2812,14862.7930,15425.2930,-15066.4062,1
8.171625,12189.4531,14683.1055,-12441.4062,14315.4297,1
8.175531,3039.0625,-13069.3359,-9049.3164,3055.6641,1
8.179437,-15160.1562,14925.2930,15300.2930,-15089.8438,1
8.183344,13315.4297,-15691.8945,-11189.9414,12690.4297,1
8.187250,7048.8281,-7069.3359,6964.3555,9049.8047,1
8.188000,-15246.0938,14753.4180,15331.5430,-15121.0938,1
8.191906,13565.9180,13933.1055,-10440.4297,15066.4062,1
8.195812,-6951.1719,-13073.2422,-7052.7344,13056.1523,1
8.199719,-15214.8438,14839.3555,15151.8555,-15199.2188,1
8.203625,14565.9180,14683.5938,-11689.9414,13816.4062,1
8.207531,7063.4766,-13057.1289,8965.3320,11075.1953,1
8.211437,-14878.9062,15050.2930,15401.8555,-14777.3438,1
8.215344,-13182.6172,-15066.8945,-10690.9180,-11932.6172,1
8.219250,9068.3594,-7060.0586,-1042.9688,7073.2422,1
8.235000,-14910.1562,15198.7305,15425.2930,-14777.3438,1
8.238906,-8557.6172,-10690.9180,-8064.9414,-8932.6172,1
8.242812,-4926.2695,-13062.9883,14961.9141,-12929.6875,1
8.246719,-14621.0938,15011.2305,15495.6055,-14910.1562,1
8.250625,-10182.1289,-14940.9180,-9439.9414,-14058.5938,1
8.254531,13092.7734,-7049.3164,10961.9141,-2928.7109,1
8.258437,-14621.0938,15073.7305,15222.1680,-14910.1562,1
8.262344,-10307.1289,-15065.9180,-11565.4297,-13433.1055,1
8.266250,-12905.2734,8949.7070,10959.4727,-915.5273,1
8.281000,-14417.9688,15065.9180,15440.9180,-14527.3438,1
8.284906,-6932.1289,-15691.4062,-9065.4297,-8557.1289,1
8.288812,-10908.6914,6941.4062,-13046.8750,3082.5195,1
8.292719,-14425.7812,15300.2930,15417.4805,-14621.0938,1
8.296625,-6182.1289,-9565.4297,-6189.9414,-9057.6172,1
8.300531,-903.3203,939.9414,-9040.0391,-8918.4570,1
8.304437,-14386.7188,15065.9180,15409.6680,-14472.6562,1
8.308344,-10682.6172,-13064.9414,-9939.4531,-9307.1289,1
8.312250,9086.4258,6962.4023,-13020.0195,7090.8203,1
8.328000,-14714.8438,15081.5430,15464.3555,-14683.5938,1
8.331906,-11183.1055,15933.1055,-9814.9414,-11058.1055,1
8.335812,-6917.9688,8943.3594,-15029.7852,-4917.9688,1
8.339719,-14488.2812,15323.7305,15495.6055,-14550.7812,1
8.343625,-6056.6406,-10690.4297,-7439.4531,-8432.1289,1
8.347531,-10906.2500,-15046.3867,6958.9844,5087.4023,1
8.351437,-14589.8438,15003.4180,15386.2305,-14863.2812,1
8.355344,-11057.6172,-15940.9180,-7689.4531,13190.9180,1
8.359250,15075.6836,-5061.0352,-11036.6211,15055.6641,1
8.375000,-14613.2812,15058.1055,15526.8555,-14894.5312,1
8.378906,-7683.5938,-11316.4062,-1688.9648,-10058.5938,1
8.382812,-8935.0586,12926.2695,14967.2852,-12931.6406,1
8.386719,-14769.5312,14808.1055,15409.6680,-14761.7188,1
8.390625,15689.9414,-15941.8945,-12439.9414,14439.9414,1
8.394531,-10946.2891,-1050.2930,10990.7227,3055.1758,1
8.398438,-15214.8438,15440.9180,15761.2305,-15152.3438,1
8.402344,12814.9414,-12816.8945,-8439.4531,11939.9414,1
8.406250,-10957.0312,-3033.2031,2993.6523,15039.5508,1
8.422000,-15011.7188,6348.1522,15972.6562,-15230.4688,1
8.425906,15064.4531,8674.8772,437.0117,10813.9648,1
8.429812,-8981.9336,11001.6023,-9018.0664,7006.8359,1
8.433719,-15863.2812,13328.3273,15972.1680,15949.2188,1
8.437625,3687.9883,15655.0524,-9567.3828,1312.5000,1
8.441531,-4999.5117,-2037.3789,-7057.1289,12996.0938,1
8.445437,15737.7930,-12184.9687,15245.6055,15737.7930,1
8.449344,-1311.0352,12217.4648,-6687.9883,-1436.0352,1
8.453250,-4985.8398,6112.1328,10999.0234,15012.2070,1
8.485000,-15996.0938,10142.5781,15847.1680,12660.0596,1
8.488906,2189.4531,-3219.2383,-5812.0117,10388.5400,1
8.492812,1036.6211,-15649.9023,1109.8633,8117.0204,1
8.496719,-15433.5938,3867.6758,-12698.7305,5845.5008,1
8.500625,-14183.1055,-12363.7695,-4042.9688,3573.9811,1
8.504531,-6934.5703,10119.1406,3395.5078,1302.4615,1
8.508437,-15199.2188,2852.5391,-9580.5664,-969.0581,1
8.512344,-14681.1523,-9602.5391,14843.7500,-3240.5777,1
8.516250,-10889.1602,6318.3594,3645.0195,-5512.0974,1
8.531000,-13933.1055,10270.5078,-1828.6133,-14089.3555,1
8.534906,5824.2188,5112.3047,-4002.4414,197.2656,0
8.538812,15231.4453,-12015.6250,-8025.8789,-801.7578,0
8.542719,-12331.0547,-625.4883,-398.9258,-12776.8555,0
8.546625,1706.0547,-6376.9531,-6501.9531,-4045.8984,0
8.550531,-12678.2227,-6025.8789,-8026.3672,-4709.9609,0
8.554437,-10409.1797,-406.7383,-414.5508,-10909.1797,0
8.558344,-9164.5508,-6501.9531,-5255.3711,-15666.5039,0
8.562250,7408.2031,-8025.8789,-8000.4883,11370.1172,0
8.578000,-9307.1289,-406.7383,-8513.6719,-7290.8008,0
8.581906,15217.7734,-6501.9531,-1710.4492,10222.3048,0
8.585812,-10469.7266,-8025.8789,-11512.2070,-4579.9220,0
8.589719,-8197.2656,-406.7383,8432.1289,3311.3282,0
8.593625,95.2148,-6501.9531,-11325.6836,8866.3867,0
8.597531,-2451.1719,-8025.8789,2940.4297,6012.3087,0
8.601437,-7251.9531,-406.7383,14933.5938,1844.6006,0
8.605344,-13901.3672,-6501.9531,-2651.3672,-2323.1075,0
8.609250,-14416.5039,-8025.8789,-336.9141,-6490.8157,0
8.610000,-6134.7656,-406.7383,-4610.8398,-7291.0156,0
8.613906,-9774.4141,-6501.9531,-6017.5781,7972.6562,0
8.617812,-8338.8672,-8025.8789,-4240.2344,13610.8398,0
8.621719,-5735.8398,-406.7383,-3766.6016,-6533.2031,0
8.625625,5730.9570,-6626.9531,2236.3281,-5772.4609,0
8.629531,15794.4336,-8011.2305,5808.1055,-4254.8828,0
8.633437,-3008.7891,-1578.6133,-3040.0391,-3868.6523,0
8.637344,11866.6992,-28.8086,10488.2812,-1260.7422,0
8.641250,11964.8438,-15895.5078,-8151.3672,1935.0586,0
8.656000,-406.7383,0.0000,-2235.3516,-453.6133,0
8.659906,-7251.9531,14000.0000,-6135.7422,-6751.9531,0
8.663812,-8026.3672,0.0000,5839.3555,-10025.3906,0
8.667719,-414.5508,0.0000,-2625.9766,-422.3633,0
8.671625,-8251.4648,0.0000,-15888.6719,-8001.4648,0
8.675531,-4108.3984,0.0000,9748.0469,-4139.6484,0
8.679437,-5064.4531,0.0000,-4243.6523,-5783.6914,0
8.683344,7588.3789,0.0000,-7019.0430,-913.0859,0
8.687250,-4470.7031,40.0391,1723.1445,1500.4883,0
8.703000,-5955.5664,0.0000,-4032.7148,-6377.4414,0
8.706906,15075.6836,-2538.5742,-6648.9258,9949.2188,0
8.710812,7004.3945,-4000.4883,15591.7969,-3008.3008,0
8.714719,10727.5391,-1242.6758,-6229.4922,10625.9766,0
8.718625,-8243.6523,-6126.9531,12306.6406,-7118.6523,0
8.722531,2000.0000,-2025.3906,10821.7773,-10000.0000,0
8.726437,85.9375,-398.9258,13948.2422,85.9375,0
8.730344,125.0000,-6376.9531,-13579.5898,125.0000,0
8.734250,0.0000,-6025.3906,-7361.3281,0.0000,0
8.750000,0.0000,-398.9258,10408.6914,0.0000,0
8.753906,0.0000,-6376.9531,3158.6914,0.0000,0
8.757812,0.0000,-8025.8789,8520.5078,0.0000,0
8.761719,0.0000,-398.9258,9291.0156,0.0000,0
8.765625,0.0000,-6376.9531,-14095.2148,0.0000,0
8.769531,0.0000,-6030.2734,-15518.0664,0.0000,0
8.773438,0.0000,-375.4883,9017.5781,0.0000,0
8.777344,0.0000,13355.9570,-12464.3555,0.0000,0
8.781250,0.0000,11448.7305,6539.5508,0.0000,0
8.813000,0.0000,-11792.9688,8752.4414,0.0000,0
8.816906,0.0000,10546.3867,5916.5039,0.0000,0
8.820812,0.0000,-15516.1133,-9340.8203,0.0000,0
8.824719,0.0000,4390.6250,9393.0664,0.0000,0
8.828625,0.0000,-1119.6289,14171.8750,0.0000,0
8.832531,0.0000,6012.2070,10663.0859,0.0000,0
8.836437,0.0000,0.0000,9385.2539,0.0000,0
8.840344,0.0000,750.0000,8300.2930,0.0000,0
8.844250,0.0000,0.0000,-7182.6172,0.0000,0
8.860000,0.0000,0.0000,10971.1914,1.5000,0
8.863906,0.0000,0.0000,13174.8047,57.6250,0
8.867812,0.0000,0.0000,-1147.4609,458.0469,0
8.871719,0.0000,0.0000,12900.8789,1819.4258,0
8.875625,0.0000,0.0000,6423.8281,14061.2614,0
8.879531,4.8828,0.0000,6946.7773,12588.6022,0
8.883437,148.4375,0.0000,13541.5039,11115.9430,0
8.887344,2.9297,0.0000,-9071.7773,9643.2837,0
8.891250,-5831.0547,0.0000,-8979.0039,8170.6245,0
8.906000,2180.1758,0.0000,13987.3047,2609.8633,0
8.909906,-12855.9570,0.0000,-11943.3594,-8479.4922,0
8.913812,14309.5703,0.0000,-6952.6367,12334.4727,0
8.917719,5337.4023,0.0000,-15871.5820,5681.1523,0
8.921625,-15593.2617,0.0000,6929.6875,-13092.7734,0
8.925531,14540.5273,0.0000,9107.4219,-11431.1523,0
8.929437,9142.5781,0.0000,-11792.9688,9736.3281,0
8.933344,12288.0859,0.0000,-15814.4531,-6082.5195,0
8.937250,-9325.1953,0.0000,5116.2109,2744.6289,0
8.938000,10979.0039,0.0000,-12385.7422,12088.8672,0
8.941906,-2833.0078,0.0000,3821.2891,14296.8750,0
8.945812,-3280.7617,0.0000,7081.5430,8780.7617,0
8.949719,13432.6172,0.0000,-11682.6172,14284.6680,0
8.953625,-11822.2656,0.0000,8197.7539,4556.6406,0
8.957531,-7157.2266,0.0000,-12867.1875,4906.7383,0
8.961437,13331.5430,0.0000,-12557.6172,14581.5430,0
8.965344,-15691.4062,0.0000,-5280.2734,-1688.9648,0
8.969250,-5041.0156,0.0000,13281.2500,-12994.6289,0
8.985000,-15667.9688,0.0000,-12463.3789,-15082.0312,0
8.988906,5314.9414,0.0000,-6277.8320,15817.8711,0
8.992812,1093.2617,0.0000,-10648.4375,-12879.3945,0
8.996719,-14902.3438,0.0000,-11330.0781,-14433.1055,0
9.000625,-4928.7109,0.0000,10599.1211,4323.7305,0
9.004531,-14827.6367,0.0000,7433.5938,-12785.1562,0
9.008437,-12597.1680,0.0000,-11424.3164,-12026.8555,0
9.012344,4325.1953,0.0000,-22.9492,12828.1250,0
9.016250,-4700.1953,0.0000,3467.7734,5338.3789,0
9.031000,-12065.9180,0.0000,-10775.3906,5730.5857,0
9.034906,-2418.9453,0.0000,7601.5625,12636.4843,0
9.038812,7293.9453,0.0000,11486.8164,-5552.1482,0
9.042719,-10518.5547,0.0000,-10893.0664,-12417.4609,0
9.046625,-2794.4336,0.0000,-9899.9023,-10924.5508,0
9.050531,15351.5625,0.0000,-495.1172,-10352.3247,0
9.054437,-9776.3672,0.0000,-10119.1406,-10150.3628,0
9.058344,7834.9609,0.0000,1225.5859,-9948.4010,0
9.062250,7442.3828,14040.0391,-491.2109,-9746.4391,0
9.078000,-9400.8789,773.4375,-9174.3164,-8932.1289,0
9.081906,7962.4023,13628.9062,-15028.3203,-13909.6680,0
9.085812,9433.5938,14037.5977,-8409.6680,1453.6133,0
9.089719,-8572.7539,2023.9258,-7565.4297,-7916.5039,0
9.093625,13836.9141,-13613.2812,-532.7148,-1659.1797,0
9.097531,-4529.7852,12222.1680,13581.0547,7526.8555,0
9.101437,-8572.2656,4181.1523,-6798.8281,-7611.3281,0
9.105344,4969.7266,3777.8320,12722.1680,-13402.3438,0
9.109250,-14509.2773,-5531.7383,5603.0273,-8455.0781,0
9.125000,-8314.4531,7110.8398,-6455.0781,-7580.0781,0
9.128906,2223.1445,8898.4375,13722.6562,13725.5859,0
9.132812,15567.3828,-5583.0078,7635.7422,11597.1680,0
9.136719,-7376.9531,6148.9258,-6072.2656,-6556.6406,0
9.140625,8344.7266,-11990.7227,13969.7266,-12903.3203,0
9.144531,5531.7383,-5858.3984,-12391.6016,9571.7773,0
9.148438,-6978.5156,2117.1875,-5556.6406,-6283.2031,0
9.152344,12719.7266,13751.9531,-11903.8086,-7152.8320,0
9.156250,7540.0391,-9982.4219,5616.2109,-2411.6211,0
9.172000,-7142.5781,-5030.5118,-5697.2656,-6400.3906,0
9.175906,-8273.4375,-3802.3595,-6150.3906,-270.9961,0
9.179812,3596.6797,-2574.2072,7629.3945,13628.4180,0
9.183719,-6681.6406,-1346.0549,-5853.0273,-5861.3281,0
9.187625,14596.6797,-117.9026,97.6562,-2400.3906,0
9.191531,-6449.7070,678.0000,3602.5391,1607.9102,0
9.195437,-6189.4531,72.4414,-5103.5156,-5353.0273,0
9.199344,-5025.8789,14.1719,-2026.3672,6977.5391,0
9.203250,13528.8086,1.5000,3598.1445,-4416.9922,0
9.235000,-7775.3906,0.0000,-5907.7148,-6821.7773,0
9.238906,-9901.8555,0.0000,3726.0742,4225.5859,0
9.242812,9510.2539,0.0000,-8421.8750,-448.2422,0
9.246719,-6759.7656,0.0000,-6009.7656,-6072.2656,0
9.250625,-15403.8086,0.0000,-5150.8789,-3651.3672,0
9.254531,1581.5430,0.0000,15595.7031,5625.9766,0
9.258437,-7322.2656,0.0000,-6251.9531,-6517.5781,0
9.262344,-15781.2500,0.0000,-5400.3906,-4903.3203,0
9.266250,-2543.4570,0.0000,-12432.6172,-8489.7461,0
9.281000,-7197.2656,0.0000,-7188.9648,-6548.3398,0
9.284906,-7529.2969,0.0000,4102.5391,2097.6562,0
9.288812,-10508.3008,0.0000,5546.3867,-2474.1211,0
9.292719,-7994.1406,0.0000,-7712.8906,-7501.9531,0
9.296625,15724.1211,0.0000,-2398.4375,-6397.9492,0
9.300531,13554.6875,0.0000,15573.7305,-12402.3438,0
9.304437,-8369.6289,0.0000,-7369.1406,-7650.3906,0
9.308344,-10028.3203,250.0000,-13523.9258,2974.6094,0
9.312250,7525.8789,6000.0000,13612.7930,-4429.1992,0
9.313000,-8072.2656,0.0000,-7916.0156,-7361.3281,0
9.316906,4345.2148,0.0000,2351.0742,-10026.3672,0
9.320812,-8514.6484,0.0000,9612.3047,5515.1367,0
9.324719,-7962.8906,0.0000,-7861.8164,-7259.7656,0
9.328625,3593.7500,0.0000,-2398.4375,-15527.8320,0
9.332531,7525.8789,0.0000,3635.7422,-419.9219,0
9.336437,-8330.0781,0.0000,-7963.3789,-7689.4531,0
9.340344,5848.6328,1750.4883,-146.9727,-14022.9492,0
9.344250,-8484.8633,0.0000,-14389.6484,5560.5469,0
9.360000,-8775.3906,125.0000,-6541.0156,-7884.7656,0
9.363906,343.2617,2375.0000,-8524.4141,14720.7031,0
9.367812,3469.2383,2.4414,-4378.4180,15519.5312,0
9.371719,-8072.7539,0.0000,-6361.3281,-7166.0156,0
9.375625,-4780.2734,1252.4414,-12525.3906,5972.6562,0
9.379531,15455.5664,-15989.2578,3633.3008,11501.4648,0
9.383437,-9119.6289,750.0000,-6806.6406,-8236.3281,0
9.387344,-4907.7148,-3996.5820,14597.6562,10094.7266,0
9.391250,15419.9219,-15961.4258,-12395.9961,-6541.0156,0
9.438000,-8830.5664,117.1875,-12167.3177,8551.6881,0
9.441906,-4662.1094,2125.0000,-10602.4441,4088.1290,0
9.445812,-12525.3906,0.0000,-9037.5705,-375.4301,0
9.449719,-8244.6289,0.0000,-7472.6969,-4838.9892,0
9.453000,-9119.6289,617.1875,-6158.2031,-8588.3789,0
9.453625,13585.9375,1375.0000,-6257.1094,-7479.7852,0
9.456906,-13913.5742,3750.4883,-6776.3672,-1659.6680,0
9.457531,-10596.1914,25.8789,-4156.7579,119.5507,0
9.460812,-8606.9336,8030.7617,9596.1914,9460.4492,0
9.461437,-8947.7539,4204.5898,7156.8165,6665.1368,0
9.464719,-9135.7422,625.0000,-5649.9023,-8010.2539,0
9.465344,11461.4258,-11488.7695,-4389.9805,-4534.2384,0
9.468625,-2664.0625,3375.9766,2224.6094,13714.8438,0
9.469250,1365.2344,8000.0000,3079.5312,12718.8281,0
9.472531,1421.3867,12035.1562,7567.8711,7489.7461,0
9.476437,-10143.5547,1609.3750,-5806.1523,-8979.0039,0
9.480344,-8289.5508,12501.9531,2474.1211,8589.8438,0
9.484250,-14556.6406,14117.1875,-4409.1797,-2500.0000,0
9.500000,-8439.9414,3329.1016,-6204.5898,-7345.7031,0
9.503906,-3408.6914,4765.1367,5850.0977,-13029.2969,0
9.507812,-8622.5586,-13799.8047,11548.8281,-14554.1992,0
9.511719,-9713.3789,3196.2891,-6696.7773,-8611.3281,0
9.515625,-10158.6914,2898.4375,473.6328,4969.7266,0
9.519531,11416.0156,-11475.0977,15551.7578,5468.2617,0
9.523438,-11245.1172,7017.0898,-7048.8281,-10174.3164,0
9.527344,-14911.1328,6783.2031,-9150.8789,5343.7500,0
9.531250,5409.6680,-9363.2812,5575.6836,3476.0742,0
9.547000,-9916.9922,1507.2319,-9486.8164,-8838.3789,0
9.550906,-2918.4570,4203.2918,5722.6562,14585.4492,0
9.554812,-12640.6250,6899.3516,7562.5000,9425.2930,0
9.558719,-9041.9922,9595.4114,-10323.7305,-7783.6914,0
9.562625,-9166.0156,12291.4712,6825.6836,13963.3789,0
9.566531,-14626.9531,1256.0313,5384.7656,-10557.6172,0
9.570437,-10682.1289,-2735.6953,-11777.3438,-9150.8789,0
9.574344,5459.4727,12657.1172,7947.7539,-4785.6445,0
9.578250,7351.0742,12159.9102,5257.8125,1441.4062,0
9.610000,-9424.8047,8627.5010,-13926.2695,-6703.8247,0
9.613906,-15541.0156,10517.6679,10318.3594,-7137.2585,0
9.617812,-10666.5039,12407.8349,-2758.3008,-7570.6922,0
9.621719,-10143.0664,14298.0019,-13965.3320,-8004.1259,0
9.625625,81.0547,12333.2423,4943.8477,-8437.5596,0
9.629531,7297.3633,-7715.8203,-8475.5859,-8870.9933,0
9.633437,-11120.1172,-15184.1797,-10824.2188,-9304.4270,0
9.637344,-4293.9453,-13944.4141,9696.2891,-9737.8607,0
9.641250,-4730.4688,-3146.7188,-12502.4414,-9624.8360,0
9.656000,-11901.3672,14034.6680,1028.5936,-1516.1134,0
9.659906,2079.5898,2307.6172,-1752.6171,-10537.5975,0
9.663812,9241.2109,-13061.0352,-6327.2070,-10169.4141,0
9.667719,-12019.0430,14159.1797,-14492.4022,-14400.7226,0
9.671625,-297.3633,-3565.4297,2071.6794,5423.9450,0
9.675531,-6703.1250,11070.8008,2852.4170,5635.1726,0
9.679437,-11956.5430,-15973.1445,-295.9798,1188.8099,0
9.683344,-15801.7578,5685.0586,-3444.3766,-3257.5528,0
9.687250,3238.2812,-14935.0586,-6592.7734,-7703.9155,0
9.703000,-10644.0430,-15004.3945,8188.8868,-6342.8711,0
9.706906,-5425.2930,-15687.5000,6249.6289,-1431.1719,0
9.710812,7250.0000,-6854.4922,-8325.0977,-9171.4258,0
9.714719,-11784.6680,-13464.3555,-2929.1211,-816.9336,0
9.718625,-3170.8984,2823.7305,5788.4766,8007.5000,0
9.722531,-14756.3477,-2811.5234,2900.2482,7922.3600,0
9.726437,-12776.3672,-14394.0430,-2169.9083,6251.1554,0
9.730344,5828.6133,-9666.9922,-7240.0648,4579.9508,0
9.734250,7231.4453,-4857.4219,-12310.2213,2908.7462,0
9.735000,-12425.2930,-5062.7538,-13283.6914,2587.8750,0
9.738906,-4045.8984,-6132.1906,-905.7617,916.6704,0
9.742812,9228.0273,-7201.6275,3125.0000,-754.5342,0
9.746719,-13097.1680,-8271.0643,-15237.3047,-2425.7388,0
9.750625,-1926.2695,-9340.5012,-13919.4336,-4096.9434,0
9.754531,-10828.1250,-10409.9381,-2898.4375,-5768.1480,0
9.758437,-12433.1055,-11479.3749,15950.1953,-7439.3526,0
9.762344,-7922.3633,-12548.8118,15473.1445,-9110.5572,0
9.766250,-12773.4375,-11773.4611,5307.6172,-10658.1797,0
9.781000,-12417.4805,-14213.8672,-15925.2930,-11471.6797,0
9.784906,-548.3398,4578.6133,-6290.0391,-15919.4336,0
9.788812,-819.3359,5156.2500,-2755.8594,7233.8867,0
9.792719,-12362.3047,-14737.7930,-15026.8555,-11495.1172,0
9.796625,9326.1719,2697.7539,6339.8438,-9920.4102,0
9.800531,9158.2031,-10959.4727,7306.1523,7219.2383,0
9.804437,-13222.1680,-13948.7305,-14229.9805,-12088.8672,0
9.808344,-11675.7812,-5559.0820,-1784.6680,6578.6133,0
9.812250,-802.7344,-10922.3633,-2535.1562,-12738.2812,0
9.828000,-12276.8555,-11127.4414,-11104.9805,-11206.5430,0
9.831906,5693.8477,5330.0781,-15292.4805,-5425.2930,0
9.835812,-10872.5586,5280.2734,-6595.2148,1200.1953,0
9.839719,-13651.8555,-10713.8672,-10776.8555,-12745.1172,0
9.843625,-10929.6875,15952.6367,3202.6367,4573.7305,0
9.847531,9120.6055,-4889.1602,-14674.3164,-2821.7773,0
9.851437,-13269.0430,-13183.1055,-10120.1172,-12175.2930,0
9.855344,2947.7539,14068.8477,10581.5430,-13299.3164,0
9.859250,-821.7773,1034.1797,-10436.5234,-4775.8789,0
9.875000,-14386.7188,15433.5938,-8386.2305,-13558.1055,0
9.878906,-6176.7578,9440.4297,-6551.2695,3700.1953,0
9.882812,-799.8047,-13014.1602,-4527.8320,-2760.7422,0
9.886719,-13816.4062,15823.7305,-7308.1055,-13120.6055,0
9.890625,-6554.6875,-10449.7070,-1564.4531,1197.2656,0
9.894531,-4869.1406,-13125.4883,-6715.3320,-12820.3125,0
9.898438,-13901.8555,-14605.4688,-5939.9414,-13151.8555,0
9.902344,15196.2891,3055.1758,-9553.2227,-6426.2695,0
9.906250,15132.3242,14923.8281,-12684.5703,7168.9453,0
9.922000,-14136.7188,15323.7305,2281.2266,-13276.8555,0
9.925906,-803.2227,-13438.9648,-3175.6250,12199.7070,0
9.929812,15122.0703,15047.8516,-5725.2070,1170.8984,0
9.933719,-14589.8438,15698.7305,7098.3438,-13847.1680,0
9.937625,-1176.7578,3429.6875,13040.4749,6575.6836,0
9.941531,-12854.4922,-2930.1758,11264.8232,9192.8711,0
9.945437,-13832.0312,-14223.1445,9489.1715,-13097.1680,0
9.949344,-10431.1523,-15689.9414,7713.5198,321.2891,0
9.953250,3229.0039,-978.0273,5937.8681,13269.5312,0
9.985000,-12386.2305,-15840.3320,-8494.6289,-11748.4570,0
9.988906,4942.8711,-9568.8477,-5048.8281,-14577.9844,0
9.992812,-8872.5586,-5070.3125,1055.6641,-9823.0117,0
9.996719,-13292.4805,15159.1797,-10877.4414,13852.4492,0
10.000625,11699.2188,-6440.9180,2701.6602,867.4433,0
10.004531,5174.3164,-4887.6953,-809.5703,-2527.5162,0
10.008437,-12933.1055,15416.9922,-12838.8672,-5922.4757,0
10.012344,6319.8242,-12689.9414,-1166.0156,-9317.4351,0
10.016250,1176.7578,998.5352,-14816.8945,-11282.6485,0
10.031000,-12917.4805,13996.0938,-14565.4297,-3947.7931,0
10.034906,-1802.2461,7315.4297,12337.4023,-1113.2031,0
10.038812,-4822.7539,-12930.6641,-2747.5586,-11303.8085,0
10.042719,-12269.0430,-15801.2695,-15675.7812,-10464.4532,0
10.046625,-9926.7578,14811.0352,-916.5039,9456.9724,0
10.050531,13122.5586,-1097.6562,7190.4297,7672.8516,0
10.054437,-13440.9180,14714.3555,15191.4062,1153.7156,0
10.058344,-13801.2695,-4440.4297,-2782.2266,-5365.4204,0
10.062250,3142.5781,-7059.5703,5300.2930,-11884.5563,0
10.063000,-13214.3555,14112.3047,14886.7188,-13136.2305,0
10.066906,-14176.2695,11427.7344,6954.5898,-13550.7812,0
10.070812,15186.0352,-11186.5234,5245.6055,1190.4297,0
10.074719,-12862.7930,11768.5547,-15645.0195,-12854.9805,0
10.078625,11450.6836,6309.5703,1576.6602,11700.6836,0
10.082531,1171.3867,8878.4180,13350.0977,11183.5938,0
10.086437,-15190.9180,9854.4922,15089.3555,-15042.4805,0
10.090344,-8045.4102,-13307.1289,-5413.5742,-5669.4336,0
10.094250,-4839.8438,2906.7383,5305.6641,1168.4570,0
10.110000,-13550.2930,14128.4180,-14699.7070,-13229.9805,0
10.113906,8565.9180,10680.6641,-9437.5000,12317.8711,0
10.117812,-8894.5312,3079.5898,-2829.1016,-12856.4453,0
10.121719,-12979.9805,-12674.8047,-13277.3438,-12526.8555,0
10.125625,2945.8008,4460.9375,8561.0352,8572.2656,0
10.129531,-10943.8477,-12646.9727,-921.3867,9084.9609,0
10.133437,-14144.0430,-7235.8398,-14339.8438,-13628.4180,0
10.137344,3317.8711,-9648.4375,-6813.9648,10318.8477,0
10.141250,9128.9062,13634.2773,-906.2500,-8838.3789,0
10.156000,-14035.1562,-5439.4531,-11714.8438,-13401.8555,0
10.159906,-4308.5938,-5404.2969,-4068.8477,3318.3594,0
10.163812,13076.6602,3552.7344,1034.6680,3107.9102,0
10.167719,-14925.7812,-7595.7031,-13183.5938,-14198.7305,0
10.171625,-2806.1523,6347.1680,-3939.9414,8196.7773,0
10.175531,-10916.5039,-520.0195,2964.8438,-12871.5820,0
10.179437,-13792.9688,-6954.5898,-12448.2422,-13019.0430,0
10.183344,-12308.5938,9716.3086,14564.4531,2194.3359,0
10.187250,1118.1641,9425.7812,8965.3320,-12833.0078,0
10.203000,-14761.2305,-8064.9414,-13495.6055,-14034.6680,0
10.206906,1944.8242,-7040.5273,-3060.5469,12697.7539,0
10.210812,-8906.7383,1397.4609,-5012.6953,13134.2773,0
10.214719,-14683.5938,-9362.3047,-12237.7930,-13831.5430,0
10.218625,-9681.1523,-13292.4805,12315.4297,6822.2656,0
10.222531,-8896.9727,7266.1133,-15048.3398,-10852.0508,0
10.226437,-13707.0312,-9909.1797,-13073.2422,-13089.8438,0
10.230344,13567.3828,-5797.3633,-13182.6172,-1928.7109,0
10.234250,9150.3906,-2737.7930,-11021.9727,7199.7070,0
10.250000,-14066.4062,-10870.1172,-14315.9180,-13082.0312,0
10.253906,13319.3359,3326.6602,-5303.7109,-2928.7109,0
10.257812,3154.7852,-4786.6211,8960.4492,-6797.3633,0
10.261719,-15050.7812,-13291.9922,15301.2695,-14190.9180,0
10.265625,-4804.1992,6703.1250,-11051.7578,7324.7070,0
10.269531,13099.1211,11298.3398,-10946.7773,1169.9219,0
10.273438,-13644.0430,-9073.2422,-14464.3555,-12573.7305,0
10.277344,1068.8477,4077.6367,2950.1953,15948.2422,0
10.281250,-4835.4492,-8593.2617,-2783.6914,13226.5625,0
10.297000,-14582.0312,-9827.6060,-9124.7232,-13511.2305,0
10.300906,15696.7773,-10133.7429,-10697.3997,1200.6836,0
10.304812,-891.1133,-10439.8799,-12270.0762,-4836.4258,0
10.308719,-13769.0430,-10746.0169,-13842.7528,-12886.2305,0
10.312625,6567.3828,-11052.1538,-15415.4293,-9678.7109,0
10.316531,1082.0312,12342.5625,12136.2500,-851.0742,0
10.320437,-14503.4180,13548.6758,11578.2148,-13519.0430,0
10.324344,4071.7773,-7048.7890,-13045.6406,-11173.8281,0
10.328250,-14951.6602,-12117.7461,1952.1719,15118.6523,0
10.360000,-15113.2812,-11135.7422,-13613.7695,13504.7851,0
10.363906,-1805.1758,-10665.5273,-3307.6172,-5716.0234,0
10.367812,-14920.4102,-638.1836,-2739.2578,-12644.5469,0
10.371719,-15800.7812,-11620.6055,-13105.9570,548.6289,0
10.375625,-4425.7812,13332.5195,10316.4062,12934.3262,0
10.379531,3071.2891,1379.8828,1397.4609,9635.8846,0
10.383437,-15144.5312,-12550.2930,-12551.2695,6337.4430,0
10.387344,12194.3359,5704.5898,-2309.5703,3039.0015,0
10.391250,-831.0547,1281.7383,7226.5625,-259.4401,0
10.406000,-14136.7188,-13362.7930,-12285.1562,-12714.3555,0
10.409906,-13307.6172,9949.2188,-12187.5000,6570.8008,0
10.413812,13101.0742,-8777.8320,-853.5156,-6829.1016,0
10.417719,-14183.5938,-12433.1055,-12261.7188,-12948.7305,0
10.421625,-3306.6406,-11044.4336,-12312.9883,-15677.2461,0
10.425531,-4882.8125,3290.5273,5152.3438,-12805.6641,0
10.429437,-14957.0312,-13183.1055,-12089.3555,-13526.8555,0
10.433344,-13558.1055,-1668.9453,10941.8945,8571.7773,0
10.437250,11068.8477,13218.7500,-10877.9297,-836.4258,0
10.438000,-14941.4062,11932.8497,-13183.5938,-13230.4688,0
10.441906,5941.4062,5235.4523,-5556.6406,-1177.7344,0
10.445812,-10906.2500,-1461.9451,-14891.1133,-8798.8281,0
10.449719,-15917.9688,-8159.3424,-13581.5430,-14183.5938,0
10.453625,2812.9883,-12046.7188,8571.2891,-3680.1758,0
10.457531,13029.7852,-4175.7812,11063.4766,-6874.5117,0
10.461437,-15894.5312,-11055.1367,-15503.4180,-14604.9805,0
10.465344,-14807.1289,-9753.8477,14956.5430,6572.2656,0
10.469250,-15025.3906,5031.8164,-15004.8828,-6962.4023,0
10.485000,-15292.9688,-12933.1055,-15963.8672,-14574.2188,0
10.488906,-12437.5000,-8298.3398,8705.0781,-1184.0820,0
10.492812,5031.7383,13197.2656,2998.5352,3066.8945,0
10.496719,-14566.4062,-13417.4805,15715.3320,-14035.1562,0
10.500625,12061.5234,10068.8477,-8302.7344,-10187.5000,0
10.504531,-4951.1719,11144.5312,-8997.0703,-6944.3359,0
10.508437,-14175.7812,-13987.7930,15160.6445,-13980.4688,0
10.512344,-4684.0820,-9050.2930,-1792.4805,-2808.5938,0
