timestamp,TP9,AF7,AF8,TP10,label
0.000000,-15910.1562,-15433.5938,-15496.0938,-15089.8438,0
0.000000,-15910.1562,-15433.5938,-15496.0938,-15089.8438,0
0.000000,-15910.1562,-15433.5938,-15496.0938,-15089.8438,0
0.000000,-15910.1562,-15433.5938,-15496.0938,-15089.8438,0
0.000000,-15910.1562,-15433.5938,-15496.0938,-15089.8438,0
0.000000,-15910.1562,-15433.5938,-15496.0938,-15089.8438,0
0.000000,-15910.1562,-15433.5938,-15496.0938,-15089.8438,0
0.000000,-15910.1562,-15433.5938,-15496.0938,-15089.8438,0
0.000000,-15910.1562,-15433.5938,-15496.0938,-15089.8438,0
0.000000,-15910.1562,-15433.5938,-15496.0938,-15089.8438,0
0.000000,-15910.1562,-15433.5938,-15496.0938,-15089.8438,0
0.000000,-15910.1562,-15433.5938,-15496.0938,-15089.8438,0
0.000000,-15910.1562,-15433.5938,-15496.0938,-15089.8438,0
0.000000,-15910.1562,-15433.5938,-15496.0938,-15089.8438,0
0.000000,-15910.1562,-15433.5938,-15496.0938,-15089.8438,0
0.000000,-15910.1562,-15433.5938,-15496.0938,-15089.8438,0
0.000000,-15910.1562,-15433.5938,-15496.0938,-15089.8438,0
0.000000,-15910.1562,-15433.5938,-15496.0938,-15089.8438,0
0.000000,-15910.1562,-15433.5938,-15496.0938,-15089.8438,0
0.000000,-15910.1562,-15433.5938,-15496.0938,-15089.8438,0
0.000000,-15910.1562,-15433.5938,-15496.0938,-15089.8438,0
0.000000,-15910.1562,-15433.5938,-15496.0938,-15089.8438,0
0.000000,-15910.1562,-15433.5938,-15496.0938,-15089.8438,0
0.000000,-15910.1562,-15433.5938,-15496.0938,-15089.8438,0
0.000000,-15910.1562,-15433.5938,-15496.0938,-15089.8438,0
0.000000,-15910.1562,-15433.5938,-15496.0938,-15089.8438,0
0.000000,-15910.1562,-15433.5938,-15496.0938,-15089.8438,0
0.000000,-15910.1562,-15433.5938,-15496.0938,-15089.8438,0
0.000000,-15910.1562,-15433.5938,-15496.0938,-15089.8438,0
0.000000,-15910.1562,-15433.5938,-15496.0938,-15089.8438,0
0.000000,-15910.1562,-15433.5938,-15496.0938,-15089.8438,0
0.003906,1562.5000,11064.4531,6063.4766,12064.4531,0
0.003906,1562.5000,11064.4531,6063.4766,12064.4531,0
0.003906,1562.5000,11064.4531,6063.4766,12064.4531,0
0.003906,1562.5000,11064.4531,6063.4766,12064.4531,0
0.003906,1562.5000,11064.4531,6063.4766,12064.4531,0
0.003906,1562.5000,11064.4531,6063.4766,12064.4531,0
0.003906,1562.5000,11064.4531,6063.4766,12064.4531,0
0.003906,1562.5000,11064.4531,6063.4766,12064.4531,0
0.003906,1562.5000,11064.4531,6063.4766,12064.4531,0
0.003906,1562.5000,11064.4531,6063.4766,12064.4531,0
0.003906,1562.5000,11064.4531,6063.4766,12064.4531,0
0.003906,1562.5000,11064.4531,6063.4766,12064.4531,0
0.003906,1562.5000,11064.4531,6063.4766,12064.4531,0
0.003906,1562.5000,11064.4531,6063.4766,12064.4531,0
0.003906,1562.5000,11064.4531,6063.4766,12064.4531,0
0.003906,1562.5000,11064.4531,6063.4766,12064.4531,0
0.003906,1562.5000,11064.4531,6063.4766,12064.4531,0
0.003906,1562.5000,11064.4531,6063.4766,12064.4531,0
0.003906,1562.5000,11064.4531,6063.4766,12064.4531,0
0.003906,1562.5000,11064.4531,6063.4766,12064.4531,0
0.003906,1562.5000,11064.4531,6063.4766,12064.4531,0
0.003906,1562.5000,11064.4531,6063.4766,12064.4531,0
0.003906,1562.5000,11064.4531,6063.4766,12064.4531,0
0.003906,1562.5000,11064.4531,6063.4766,12064.4531,0
0.003906,1562.5000,11064.4531,6063.4766,12064.4531,0
0.003906,1562.5000,11064.4531,6063.4766,12064.4531,0
0.003906,1562.5000,11064.4531,6063.4766,12064.4531,0
0.003906,1562.5000,11064.4531,6063.4766,12064.4531,0
0.003906,1562.5000,11064.4531,6063.4766,12064.4531,0
0.003906,1562.5000,11064.4531,6063.4766,12064.4531,0
0.003906,1562.5000,11064.4531,6063.4766,12064.4531,0
0.007812,-15000.4883,13030.7617,-10976.0742,-6964.8438,0
0.007812,-15000.4883,13030.7617,-10976.0742,-6964.8438,0
0.007812,-15000.4883,13030.7617,-10976.0742,-6964.8438,0
0.007812,-15000.4883,13030.7617,-10976.0742,-6964.8438,0
0.007812,-15000.4883,13030.7617,-10976.0742,-6964.8438,0
0.007812,-15000.4883,13030.7617,-10976.0742,-6964.8438,0
0.007812,-15000.4883,13030.7617,-10976.0742,-6964.8438,0
0.007812,-15000.4883,13030.7617,-10976.0742,-6964.8438,0
0.007812,-15000.4883,13030.7617,-10976.0742,-6964.8438,0
0.007812,-15000.4883,13030.7617,-10976.0742,-6964.8438,0
0.007812,-15000.4883,13030.7617,-10976.0742,-6964.8438,0
0.007812,-15000.4883,13030.7617,-10976.0742,-6964.8438,0
0.007812,-15000.4883,13030.7617,-10976.0742,-6964.8438,0
0.007812,-15000.4883,13030.7617,-10976.0742,-6964.8438,0
0.007812,-15000.4883,13030.7617,-10976.0742,-6964.8438,0
0.007812,-15000.4883,13030.7617,-10976.0742,-6964.8438,0
0.007812,-15000.4883,13030.7617,-10976.0742,-6964.8438,0
0.007812,-15000.4883,13030.7617,-10976.0742,-6964.8438,0
0.007812,-15000.4883,13030.7617,-10976.0742,-6964.8438,0
0.007812,-15000.4883,13030.7617,-10976.0742,-6964.8438,0
0.007812,-15000.4883,13030.7617,-10976.0742,-6964.8438,0
0.007812,-15000.4883,13030.7617,-10976.0742,-6964.8438,0
0.007812,-15000.4883,13030.7617,-10976.0742,-6964.8438,0
0.007812,-15000.4883,13030.7617,-10976.0742,-6964.8438,0
0.007812,-15000.4883,13030.7617,-10976.0742,-6964.8438,0
0.007812,-15000.4883,13030.7617,-10976.0742,-6964.8438,0
0.007812,-15000.4883,13030.7617,-10976.0742,-6964.8438,0
0.007812,-15000.4883,13030.7617,-10976.0742,-6964.8438,0
0.007812,-15000.4883,13030.7617,-10976.0742,-6964.8438,0
0.007812,-15000.4883,13030.7617,-10976.0742,-6964.8438,0
0.007812,-15000.4883,13030.7617,-10976.0742,-6964.8438,0
0.011719,15832.0312,-15464.8438,-15675.7812,-15441.4062,0
0.011719,15832.0312,-15464.8438,-15675.7812,-15441.4062,0
0.011719,15832.0312,-15464.8438,-15675.7812,-15441.4062,0
0.011719,15832.0312,-15464.8438,-15675.7812,-15441.4062,0
0.011719,15832.0312,-15464.8438,-15675.7812,-15441.4062,0
0.011719,15832.0312,-15464.8438,-15675.7812,-15441.4062,0
0.011719,15832.0312,-15464.8438,-15675.7812,-15441.4062,0
0.011719,15832.0312,-15464.8438,-15675.7812,-15441.4062,0
0.011719,15832.0312,-15464.8438,-15675.7812,-15441.4062,0
0.011719,15832.0312,-15464.8438,-15675.7812,-15441.4062,0
0.011719,15832.0312,-15464.8438,-15675.7812,-15441.4062,0
0.011719,15832.0312,-15464.8438,-15675.7812,-15441.4062,0
0.011719,15832.0312,-15464.8438,-15675.7812,-15441.4062,0
0.011719,15832.0312,-15464.8438,-15675.7812,-15441.4062,0
0.011719,15832.0312,-15464.8438,-15675.7812,-15441.4062,0
0.011719,15832.0312,-15464.8438,-15675.7812,-15441.4062,0
0.011719,15832.0312,-15464.8438,-15675.7812,-15441.4062,0
0.011719,15832.0312,-15464.8438,-15675.7812,-15441.4062,0
0.011719,15832.0312,-15464.8438,-15675.7812,-15441.4062,0
0.011719,15832.0312,-15464.8438,-15675.7812,-15441.4062,0
0.011719,15832.0312,-15464.8438,-15675.7812,-15441.4062,0
0.011719,15832.0312,-15464.8438,-15675.7812,-15441.4062,0
0.011719,15832.0312,-15464.8438,-15675.7812,-15441.4062,0
0.011719,15832.0312,-15464.8438,-15675.7812,-15441.4062,0
0.011719,15832.0312,-15464.8438,-15675.7812,-15441.4062,0
0.011719,15832.0312,-15464.8438,-15675.7812,-15441.4062,0
0.011719,15832.0312,-15464.8438,-15675.7812,-15441.4062,0
0.011719,15832.0312,-15464.8438,-15675.7812,-15441.4062,0
0.011719,15832.0312,-15464.8438,-15675.7812,-15441.4062,0
0.011719,15832.0312,-15464.8438,-15675.7812,-15441.4062,0
0.011719,15832.0312,-15464.8438,-15675.7812,-15441.4062,0
0.015625,61.5234,6937.9883,5563.4766,13064.9414,0
0.015625,61.5234,6937.9883,5563.4766,13064.9414,0
0.015625,61.5234,6937.9883,5563.4766,13064.9414,0
0.015625,61.5234,6937.9883,5563.4766,13064.9414,0
0.015625,61.5234,6937.9883,5563.4766,13064.9414,0
0.015625,61.5234,6937.9883,5563.4766,13064.9414,0
0.015625,61.5234,6937.9883,5563.4766,13064.9414,0
0.015625,61.5234,6937.9883,5563.4766,13064.9414,0
0.015625,61.5234,6937.9883,5563.4766,13064.9414,0
0.015625,61.5234,6937.9883,5563.4766,13064.9414,0
0.015625,61.5234,6937.9883,5563.4766,13064.9414,0
0.015625,61.5234,6937.9883,5563.4766,13064.9414,0
0.015625,61.5234,6937.9883,5563.4766,13064.9414,0
0.015625,61.5234,6937.9883,5563.4766,13064.9414,0
0.015625,61.5234,6937.9883,5563.4766,13064.9414,0
0.015625,61.5234,6937.9883,5563.4766,13064.9414,0
0.015625,61.5234,6937.9883,5563.4766,13064.9414,0
0.015625,61.5234,6937.9883,5563.4766,13064.9414,0
0.015625,61.5234,6937.9883,5563.4766,13064.9414,0
0.015625,61.5234,6937.9883,5563.4766,13064.9414,0
0.015625,61.5234,6937.9883,5563.4766,13064.9414,0
0.015625,61.5234,6937.9883,5563.4766,13064.9414,0
0.015625,61.5234,6937.9883,5563.4766,13064.9414,0
0.015625,61.5234,6937.9883,5563.4766,13064.9414,0
0.015625,61.5234,6937.9883,5563.4766,13064.9414,0
0.015625,61.5234,6937.9883,5563.4766,13064.9414,0
0.015625,61.5234,6937.9883,5563.4766,13064.9414,0
0.015625,61.5234,6937.9883,5563.4766,13064.9414,0
0.015625,61.5234,6937.9883,5563.4766,13064.9414,0
0.015625,61.5234,6937.9883,5563.4766,13064.9414,0
0.015625,61.5234,6937.9883,5563.4766,13064.9414,0
0.019531,-9015.1367,-2991.6992,13021.9727,7030.2734,0
0.019531,-9015.1367,-2991.6992,13021.9727,7030.2734,0
0.019531,-9015.1367,-2991.6992,13021.9727,7030.2734,0
0.019531,-9015.1367,-2991.6992,13021.9727,7030.2734,0
0.019531,-9015.1367,-2991.6992,13021.9727,7030.2734,0
0.019531,-9015.1367,-2991.6992,13021.9727,7030.2734,0
0.019531,-9015.1367,-2991.6992,13021.9727,7030.2734,0
0.019531,-9015.1367,-2991.6992,13021.9727,7030.2734,0
0.019531,-9015.1367,-2991.6992,13021.9727,7030.2734,0
0.019531,-9015.1367,-2991.6992,13021.9727,7030.2734,0
0.019531,-9015.1367,-2991.6992,13021.9727,7030.2734,0
0.019531,-9015.1367,-2991.6992,13021.9727,7030.2734,0
0.019531,-9015.1367,-2991.6992,13021.9727,7030.2734,0
0.019531,-9015.1367,-2991.6992,13021.9727,7030.2734,0
0.019531,-9015.1367,-2991.6992,13021.9727,7030.2734,0
0.019531,-9015.1367,-2991.6992,13021.9727,7030.2734,0
0.019531,-9015.1367,-2991.6992,13021.9727,7030.2734,0
0.019531,-9015.1367,-2991.6992,13021.9727,7030.2734,0
0.019531,-9015.1367,-2991.6992,13021.9727,7030.2734,0
0.019531,-9015.1367,-2991.6992,13021.9727,7030.2734,0
0.019531,-9015.1367,-2991.6992,13021.9727,7030.2734,0
0.019531,-9015.1367,-2991.6992,13021.9727,7030.2734,0
0.019531,-9015.1367,-2991.6992,13021.9727,7030.2734,0
0.019531,-9015.1367,-2991.6992,13021.9727,7030.2734,0
0.019531,-9015.1367,-2991.6992,13021.9727,7030.2734,0
0.019531,-9015.1367,-2991.6992,13021.9727,7030.2734,0
0.019531,-9015.1367,-2991.6992,13021.9727,7030.2734,0
0.019531,-9015.1367,-2991.6992,13021.9727,7030.2734,0
0.019531,-9015.1367,-2991.6992,13021.9727,7030.2734,0
0.019531,-9015.1367,-2991.6992,13021.9727,7030.2734,0
0.019531,-9015.1367,-2991.6992,13021.9727,7030.2734,0
0.023438,15909.6680,-15769.5312,-15597.6562,-15371.0938,0
0.023438,15909.6680,-15769.5312,-15597.6562,-15371.0938,0
0.023438,15909.6680,-15769.5312,-15597.6562,-15371.0938,0
0.023438,15909.6680,-15769.5312,-15597.6562,-15371.0938,0
0.023438,15909.6680,-15769.5312,-15597.6562,-15371.0938,0
0.023438,15909.6680,-15769.5312,-15597.6562,-15371.0938,0
0.023438,15909.6680,-15769.5312,-15597.6562,-15371.0938,0
0.023438,15909.6680,-15769.5312,-15597.6562,-15371.0938,0
0.023438,15909.6680,-15769.5312,-15597.6562,-15371.0938,0
0.023438,15909.6680,-15769.5312,-15597.6562,-15371.0938,0
0.023438,15909.6680,-15769.5312,-15597.6562,-15371.0938,0
0.023438,15909.6680,-15769.5312,-15597.6562,-15371.0938,0
0.023438,15909.6680,-15769.5312,-15597.6562,-15371.0938,0
0.023438,15909.6680,-15769.5312,-15597.6562,-15371.0938,0
0.023438,15909.6680,-15769.5312,-15597.6562,-15371.0938,0
0.023438,15909.6680,-15769.5312,-15597.6562,-15371.0938,0
0.023438,15909.6680,-15769.5312,-15597.6562,-15371.0938,0
0.023438,15909.6680,-15769.5312,-15597.6562,-15371.0938,0
0.023438,15909.6680,-15769.5312,-15597.6562,-15371.0938,0
0.023438,15909.6680,-15769.5312,-15597.6562,-15371.0938,0
0.023438,15909.6680,-15769.5312,-15597.6562,-15371.0938,0
0.023438,15909.6680,-15769.5312,-15597.6562,-15371.0938,0
0.023438,15909.6680,-15769.5312,-15597.6562,-15371.0938,0
0.023438,15909.6680,-15769.5312,-15597.6562,-15371.0938,0
0.023438,15909.6680,-15769.5312,-15597.6562,-15371.0938,0
0.023438,15909.6680,-15769.5312,-15597.6562,-15371.0938,0
0.023438,15909.6680,-15769.5312,-15597.6562,-15371.0938,0
0.023438,15909.6680,-15769.5312,-15597.6562,-15371.0938,0
0.023438,15909.6680,-15769.5312,-15597.6562,-15371.0938,0
0.023438,15909.6680,-15769.5312,-15597.6562,-15371.0938,0
0.023438,15909.6680,-15769.5312,-15597.6562,-15371.0938,0
0.027344,-187.0117,3187.9883,6313.4766,12440.4297,0
0.027344,-187.0117,3187.9883,6313.4766,12440.4297,0
0.027344,-187.0117,3187.9883,6313.4766,12440.4297,0
0.027344,-187.0117,3187.9883,6313.4766,12440.4297,0
0.027344,-187.0117,3187.9883,6313.4766,12440.4297,0
0.027344,-187.0117,3187.9883,6313.4766,12440.4297,0
0.027344,-187.0117,3187.9883,6313.4766,12440.4297,0
0.027344,-187.0117,3187.9883,6313.4766,12440.4297,0
0.027344,-187.0117,3187.9883,6313.4766,12440.4297,0
0.027344,-187.0117,3187.9883,6313.4766,12440.4297,0
0.027344,-187.0117,3187.9883,6313.4766,12440.4297,0
0.027344,-187.0117,3187.9883,6313.4766,12440.4297,0
0.027344,-187.0117,3187.9883,6313.4766,12440.4297,0
0.027344,-187.0117,3187.9883,6313.4766,12440.4297,0
0.027344,-187.0117,3187.9883,6313.4766,12440.4297,0
0.027344,-187.0117,3187.9883,6313.4766,12440.4297,0
0.027344,-187.0117,3187.9883,6313.4766,12440.4297,0
0.027344,-187.0117,3187.9883,6313.4766,12440.4297,0
0.027344,-187.0117,3187.9883,6313.4766,12440.4297,0
0.027344,-187.0117,3187.9883,6313.4766,12440.4297,0
0.027344,-187.0117,3187.9883,6313.4766,12440.4297,0
0.027344,-187.0117,3187.9883,6313.4766,12440.4297,0
0.027344,-187.0117,3187.9883,6313.4766,12440.4297,0
0.027344,-187.0117,3187.9883,6313.4766,12440.4297,0
0.027344,-187.0117,3187.9883,6313.4766,12440.4297,0
0.027344,-187.0117,3187.9883,6313.4766,12440.4297,0
0.027344,-187.0117,3187.9883,6313.4766,12440.4297,0
0.027344,-187.0117,3187.9883,6313.4766,12440.4297,0
0.027344,-187.0117,3187.9883,6313.4766,12440.4297,0
0.027344,-187.0117,3187.9883,6313.4766,12440.4297,0
0.027344,-187.0117,3187.9883,6313.4766,12440.4297,0
0.031000,-15683.5938,-15730.4688,-15589.8438,-14652.3438,0
0.031250,3014.6484,5017.5781,-6975.5859,13065.9180,0
0.031250,3014.6484,5017.5781,-6975.5859,13065.9180,0
0.031250,3014.6484,5017.5781,-6975.5859,13065.9180,0
0.031250,3014.6484,5017.5781,-6975.5859,13065.9180,0
0.031250,3014.6484,5017.5781,-6975.5859,13065.9180,0
0.031250,3014.6484,5017.5781,-6975.5859,13065.9180,0
0.031250,3014.6484,5017.5781,-6975.5859,13065.9180,0
0.031250,3014.6484,5017.5781,-6975.5859,13065.9180,0
0.031250,3014.6484,5017.5781,-6975.5859,13065.9180,0
0.031250,3014.6484,5017.5781,-6975.5859,13065.9180,0
0.031250,3014.6484,5017.5781,-6975.5859,13065.9180,0
0.031250,3014.6484,5017.5781,-6975.5859,13065.9180,0
0.031250,3014.6484,5017.5781,-6975.5859,13065.9180,0
0.031250,3014.6484,5017.5781,-6975.5859,13065.9180,0
0.031250,3014.6484,5017.5781,-6975.5859,13065.9180,0
0.031250,3014.6484,5017.5781,-6975.5859,13065.9180,0
0.031250,3014.6484,5017.5781,-6975.5859,13065.9180,0
0.031250,3014.6484,5017.5781,-6975.5859,13065.9180,0
0.031250,3014.6484,5017.5781,-6975.5859,13065.9180,0
0.031250,3014.6484,5017.5781,-6975.5859,13065.9180,0
0.031250,3014.6484,5017.5781,-6975.5859,13065.9180,0
0.031250,3014.6484,5017.5781,-6975.5859,13065.9180,0
0.031250,3014.6484,5017.5781,-6975.5859,13065.9180,0
0.031250,3014.6484,5017.5781,-6975.5859,13065.9180,0
0.031250,3014.6484,5017.5781,-6975.5859,13065.9180,0
0.031250,3014.6484,5017.5781,-6975.5859,13065.9180,0
0.031250,3014.6484,5017.5781,-6975.5859,13065.9180,0
0.031250,3014.6484,5017.5781,-6975.5859,13065.9180,0
0.031250,3014.6484,5017.5781,-6975.5859,13065.9180,0
0.031250,3014.6484,5017.5781,-6975.5859,13065.9180,0
0.031250,3014.6484,5017.5781,-6975.5859,13065.9180,0
0.034906,5188.9648,2312.9883,5938.9648,-9057.1289,0
0.038813,13036.1328,-4984.3750,-967.2852,-6907.2266,0
0.042719,-15425.7812,-15792.9688,-15550.7812,-14535.1562,0
0.046625,10814.9414,5188.4766,8939.4531,-7307.6172,0
0.050531,13044.9219,-14983.3984,7028.3203,-916.9922,0
0.054438,-15105.4688,-15675.7812,-15574.2188,-14394.5312,0
0.058344,15315.9180,7188.9648,6689.4531,-2680.6641,0
0.062250,-937.0117,-2972.6562,-14958.0078,11113.2812,0
0.078000,-15089.8438,-15628.9062,-15378.9062,-14136.7188,0
0.081906,12440.4297,4188.4766,8814.4531,-3930.6641,0
0.085812,-4934.0820,1013.6719,-4963.3789,5122.5586,0
0.089719,-14785.1562,-15777.3438,-15386.7188,-13815.9180,0
0.093625,-12183.5938,5938.4766,9189.4531,1194.8242,0
0.097531,-10927.2461,-12978.0273,-6955.0781,-2865.7227,0
0.101437,-14714.8438,-15582.0312,-15316.4062,-13628.4180,0
0.105344,-12933.1055,4312.9883,9189.4531,5196.2891,0
0.109250,-14927.7344,-6983.3984,-10956.0547,9146.9727,0
0.125000,-14910.1562,-11487.6143,-15417.9688,-2538.4789,0
0.128906,-14183.5938,-12604.7314,6939.9414,-5436.6564,0
0.132812,7066.4062,-13721.8484,11047.8516,-8334.8339,0
0.136719,-14683.5938,-14838.9654,-15355.4688,-11233.0114,0
0.140625,-11057.6172,-12482.7344,10815.4297,-10409.1993,0
0.144531,15081.0547,4527.0899,-938.4766,3572.4024,0
0.148438,-14730.4688,20.7618,-15050.7812,-12870.7227,0
0.152344,-11808.1055,-12623.4376,12814.9414,-9277.0118,0
0.156250,-6920.4102,4861.5234,9044.4336,-11554.1994,0
0.187000,-14730.4688,-15746.0938,-3996.8280,10863.4687,0
0.190906,-10056.6406,4563.4766,-7387.5209,5402.1084,0
0.194812,3088.8672,-12983.3984,-9973.7646,-737.1322,0
0.198719,-14699.2188,-15675.7812,-12560.0082,-6876.3728,0
0.202625,-11682.6172,6563.9648,-15146.2519,-13015.6134,0
0.203000,-14378.9062,-15621.0938,-15394.5312,-13604.9805,0
0.206531,-2907.2266,7029.2969,10220.2734,3957.2500,0
0.206906,-2930.6641,7564.4531,12940.4297,5822.2656,0
0.210437,-14503.9062,-15597.6562,-3232.6953,8846.3398,0
0.210812,13099.1211,1028.8086,-4950.1953,9167.4805,0
0.214344,-6932.1289,5313.9648,-14194.1250,-11206.9492,0
0.214719,-14535.1562,-15535.1562,-15175.7812,-13370.6055,0
0.218250,-8912.1094,7024.9023,10014.8320,4543.4258,0
0.218625,-7807.1289,7563.9648,12689.9414,6445.8008,0
0.222531,13077.6367,7013.1836,9043.4570,-867.6758,0
0.226437,-14660.1562,-15652.3438,-15105.4688,-13714.3555,0
0.230344,-12558.5938,5562.9883,13314.9414,4320.3125,0
0.234250,5071.7773,-2980.9570,-10961.4258,-4862.3047,0
0.265000,-14683.5938,-15582.0312,6862.6759,2586.8360,0
0.268906,-10182.6172,9314.4531,-703.2618,198.9648,0
0.272813,-904.7852,13021.9727,-13140.0782,-11531.0743,0
0.276719,-14628.9062,-15542.9688,8561.4259,5975.5665,0
0.280625,-12932.6172,9064.4531,-8795.5665,-830.1368,0
0.284531,-14910.6445,15031.7383,-13216.8103,-5165.1715,0
0.288438,-14503.9062,-15527.3438,-13523.1646,-7938.6504,0
0.292344,-8557.1289,7938.9648,-13829.5189,-10712.1293,0
0.296250,-12911.1328,11017.5781,-14135.8732,-11859.7615,0
0.312000,-14488.2812,-15683.5938,-15371.0938,11204.6719,0
0.315906,-5931.6406,6438.4766,10315.4297,-3886.0078,0
0.319812,-4887.2070,-4984.3750,5051.2695,-11744.2148,0
0.323719,-14152.3438,-15699.2188,-15191.4062,5600.8906,0
0.327625,-5056.1523,5813.4766,15566.4062,991.6627,0
0.331531,-14895.0195,7013.6719,11059.0820,-783.8236,0
0.335437,-14277.3438,-15792.9688,-15035.1562,-2559.3098,0
0.339344,-2805.6641,5063.4766,14940.9180,-4334.7961,0
0.343250,-883.7891,-12979.4922,-8934.0820,-6110.2824,0
0.359000,-14191.4062,-15558.5938,-15097.6562,-13269.0430,0
0.362906,-7058.1055,6437.9883,11064.4531,10320.8008,0
0.366812,-8923.8281,9012.2070,-957.0312,-12865.2344,0
0.370719,-14378.9062,-15511.7188,-15042.9688,-13581.5430,0
0.374625,-6933.1055,7063.4766,15065.4297,6071.2891,0
0.378531,-6931.1523,3010.2539,11050.2930,11145.9961,0
0.382437,-14878.9062,-15667.9688,-15105.4688,-13651.8555,0
0.386344,-13183.1055,5562.5000,15190.9180,7571.7773,0
0.390250,15083.9844,-8983.3984,-926.2695,-2843.2617,0
0.406000,-14394.5312,-15425.7812,-14839.8438,-13308.1055,0
0.409906,-8683.5938,5687.9883,13690.9180,9947.2656,0
0.413813,-6937.0117,-10976.5625,-8938.9648,9148.9258,0
0.417719,-14910.1562,-15433.5938,-15214.8438,-13933.5938,0
0.421625,-15809.0820,7813.9648,12440.4297,-929.1992,0
0.425531,-2931.1523,5020.9961,5046.8750,13141.6016,0
0.429438,-14730.4688,-15699.2188,-15089.8438,-13690.9180,0
0.433344,-11307.6172,6063.9648,14190.4297,6322.2656,0
0.437250,-12919.9219,15017.5781,-939.9414,-14843.2617,0
0.453000,-14746.0938,-15871.0938,-15089.8438,-13644.0430,0
0.456906,-11307.6172,1687.9883,14065.9180,8822.7539,0
0.460812,13080.0781,-10987.3047,3050.7812,-8839.3555,0
0.464719,-14777.3438,-15839.8438,-15230.4688,-13519.0430,0
0.468625,-12057.1289,2062.9883,11565.4297,7697.2656,0
0.472531,-14901.8555,15010.2539,-8950.1953,-12849.6094,0
0.476437,-14433.5938,-15941.4062,-15160.1562,-13808.1055,0
0.480344,-3681.1523,4563.4766,-14308.5938,4320.8008,0
0.484250,-2909.1797,-10985.8398,15062.0117,-10859.3750,0
0.500000,-14542.9688,-15660.1562,-14894.5312,-13667.4805,0
0.503906,-7056.6406,8063.9648,-13059.0820,4571.2891,0
0.507812,9087.4023,-14984.3750,15058.1055,3140.6250,0
0.511719,-14777.3438,-15753.9062,-15074.2188,-13745.6055,0
0.515625,-14558.1055,2562.5000,12815.4297,3695.3125,0
0.519531,-8922.8516,-980.4688,-10942.8711,-14862.7930,0
0.523438,-15128.9062,-15574.2188,-14941.4062,-13792.9688,0
0.527344,9815.9180,4937.9883,15565.9180,-3805.6641,0
0.531250,1054.6875,11011.7188,-12940.4297,9112.3047,0
0.562000,-15683.5938,-15777.3438,13054.0234,8449.3047,0
0.565906,2813.4766,2063.4766,-13163.7188,3057.9726,0
0.569812,998.0469,3025.3906,-12399.5937,-13199.7500,0
0.573719,15737.7930,-15707.0312,13167.3281,7431.1328,0
0.577625,-6565.9180,2562.5000,-4072.0215,-5423.8281,0
0.578000,15112.7930,2221.9531,-15199.2188,-15855.4688,0
0.581531,-3048.3398,-984.8633,9447.5820,-1013.1836,0
0.581906,-12440.9180,-2404.9414,12064.9414,562.9883,0
0.585437,15362.7930,-15777.3438,-12359.8320,2778.4062,0
0.585812,-1040.0391,-13944.5781,-14953.6133,3013.6719,0
0.589344,-11941.4062,3313.9648,-15323.9531,-14114.6562,0
0.589719,15378.4180,1371.9075,-15363.2812,-15933.5938,0
0.593250,931.6406,9028.3203,4910.9492,1466.1992,0
0.593625,-9689.9414,8788.3864,7063.9648,3313.9648,0
0.597531,-1021.4844,3542.9493,-12965.8203,1022.9492,0
0.601437,15910.1562,-13374.7266,-15542.9688,-15425.7812,0
0.605344,1437.0117,-11653.3595,5688.9648,11314.4531,0
0.609250,-11009.7656,6614.0430,3026.8555,7033.2031,0
0.640000,-15957.0312,-15480.4688,-15464.8438,-11120.2734,0
0.643906,1062.9883,9064.9414,8564.4531,-7477.8515,0
0.647813,9022.9492,-6958.9844,13037.5977,-13480.0000,0
0.651719,-15597.6562,-15472.6562,-15425.7812,-11329.8633,0
0.655625,7689.4531,8063.9648,7564.4531,9290.8399,0
0.659531,13036.1328,-4960.9375,11042.9688,6964.2696,0
0.663438,-15535.1562,-15300.7812,-15253.9062,-334.4748,0
0.667344,7064.4531,10313.9648,12190.4297,-7633.2191,0
0.671250,3025.8789,11017.5781,13052.7344,-14166.7187,0
0.687000,-15558.5938,-2258.8890,-15339.8438,6789.0195,0
0.690906,9814.9414,-5551.6636,12065.4297,8860.3594,0
0.694812,7055.6641,-8844.4382,-2949.2188,-13118.6836,0
0.698719,-14777.3438,-12137.2128,-15050.7812,-14459.3516,0
0.702625,-10182.6172,-15429.9874,12314.9414,-14757.7241,0
0.706531,-2911.1328,2048.3164,-12944.3359,-14477.0585,0
0.710437,-14300.7812,-502.1172,-15035.1562,-14196.3929,0
0.714344,-2180.1758,-14229.0625,15566.4062,-13915.7273,0
0.718250,-2871.0938,-653.6250,11066.8945,-13635.0617,0
0.734000,-13925.2930,-15949.2188,-14933.5938,-12503.4180,0
0.737906,4446.7773,2187.5000,-13308.1055,-4672.8516,0
0.741812,-14848.6328,-5011.7188,-14937.0117,-14765.6250,0
0.745719,-13479.9805,15745.6055,-14925.7812,-12057.6172,0
0.749625,9947.7539,-1938.4766,-13433.5938,1078.1250,0
0.753531,15176.2695,-15008.7891,1067.3828,-12743.1641,0
0.757437,-13058.1055,15925.2930,-14808.5938,-11752.9297,0
0.761344,14698.7305,-3563.4766,-15433.5938,6705.0781,0
0.765250,-794.9219,7000.0000,13072.2656,3278.8086,0
0.781000,-12729.9805,15972.1680,-14894.5312,-11612.3047,0
0.784906,-14551.2695,-1437.9883,13689.9414,4703.6133,0
0.788813,7176.7578,2991.6992,-14947.7539,1259.7656,0
0.792719,-13159.6680,15839.3555,-14972.6562,-11791.9922,0
0.796625,13574.2188,-2187.5000,-13933.5938,3578.6133,0
0.800531,11177.7344,-12995.6055,9057.6172,-2739.2578,0
0.804438,-13315.9180,-15926.2695,-15035.1562,-11823.2422,0
0.808344,11322.7539,-563.4766,13815.4297,2953.1250,0
0.812250,-14836.9141,10988.2812,15055.1758,13246.0938,0
0.828000,-13519.0430,13460.9732,-15246.0938,-12081.5430,0
0.831906,6821.7773,14074.2401,11690.4297,-1172.3633,0
0.835812,-2847.6562,14687.5069,-8953.1250,-14761.2305,0
0.839719,-13573.7305,15300.7738,-15269.5312,-12425.2930,0
0.843625,8696.7773,12995.3712,11564.9414,-6423.3398,0
0.847531,9147.4609,237.6562,-2950.6836,-14775.8789,0
0.851437,-13550.2930,11798.9453,-15183.5938,-12479.9805,0
0.855344,5570.8008,13580.1563,12064.9414,-7048.8281,0
0.859250,13127.9297,-331.4843,9036.6211,5223.1445,0
0.875000,-13886.2305,15980.4688,-15410.1562,-12347.1680,0
0.878906,2319.8242,187.5000,13815.4297,-4297.8516,0
0.882812,-14892.5781,-15002.4414,-10966.7969,5218.2617,0
0.886719,-14402.3438,-15964.8438,-15410.1562,-12620.6055,0
0.890625,-3055.1758,2187.5000,12064.9414,-7298.8281,0
0.894531,5099.1211,-10993.1641,13034.6680,-787.1094,0
0.898438,-14464.8438,-15878.9062,-15472.6562,-12784.6680,0
0.902344,-5931.6406,1688.4766,9439.9414,-11174.8047,0
0.906250,15092.2852,5018.0664,-6963.3789,-12793.9453,0
0.921000,-14542.9688,-15824.2188,4406.4255,-10459.8828,0
0.924906,-9056.6406,3563.4766,8905.2539,-14029.1406,0
0.928812,5096.1914,-8989.2578,-11412.5778,-12881.9336,0
0.932719,-14394.5312,-15839.8438,7790.5856,-10024.8828,0
0.936625,-3931.1523,5563.4766,2833.1251,-10600.6250,0
0.940531,-2898.9258,5010.2539,-2328.1250,-11192.9321,0
0.944437,-14347.6562,-15636.7188,-6350.6324,-11659.7784,0
0.948344,-5556.6406,6562.9883,-10373.1399,-12126.6247,0
0.952250,-6902.3438,13005.3711,-14395.6473,-12593.4710,0
0.968000,-14457.0312,-15769.5312,5781.4259,9558.4767,0
0.971906,-6931.1523,3812.9883,-10991.4649,-158.5743,0
0.975812,5104.9805,-14997.5586,-15284.7656,-11741.8555,0
0.979719,-14285.1562,-15832.0312,7153.9259,4945.9766,0
0.983625,-8557.6172,5438.4766,9416.2305,5706.7578,0
0.987531,13079.1016,1012.6953,6421.9033,1411.6821,0
0.991437,-14800.7812,-15816.4062,3316.1194,-3079.8514,0
0.995344,-11307.6172,5313.9648,210.3356,-7571.3850,0
0.999250,1069.3359,13019.5312,-2895.4483,-12062.9185,0
1.015000,-14761.7188,-15777.3438,-15417.9688,10356.7970,0
1.018906,-11807.6172,2563.4766,10439.9414,-6708.9845,0
1.022813,9084.9609,15019.0430,9045.8984,-12672.2461,0
1.026719,-14652.3438,-15878.9062,-15449.2188,10577.2267,0
1.030625,-8682.1289,3313.4766,6939.4531,40.1952,0
1.034531,11084.4727,-10976.0742,-8956.5430,-3927.8818,0
1.038438,-14652.3438,-15621.0938,-15324.2188,-5242.9289,0
1.042344,-12933.1055,3312.9883,10564.4531,-6557.9760,0
1.046250,-10913.5742,-10981.4453,-4962.8906,-7873.0231,0
1.062000,-14691.4062,-15808.5938,-15347.6562,-13175.2930,0
1.065906,-9432.1289,3313.4766,12064.9414,13323.7305,0
1.069812,-910.6445,7016.6016,-4963.3789,15185.0586,0
1.073719,-14621.0938,-15832.0312,-15449.2188,-13026.8555,0
1.077625,-10182.1289,1937.9883,7689.4531,14448.7305,0
1.081531,13086.9141,-4985.8398,7042.4805,-4810.0586,0
1.085437,-14722.6562,-15730.4688,-15308.5938,-12964.3555,0
1.089344,-6931.1523,5938.4766,10314.4531,-12424.8047,0
1.093250,-10921.8750,-8982.9102,-957.5195,5194.3359,0
1.109000,-14917.9688,-15714.8438,-15238.2812,-12979.9805,0
1.112906,15315.4297,1437.5000,9438.9648,13948.2422,0
1.116812,7050.7812,15004.8828,7028.3203,-6823.2422,0
1.120719,-15089.8438,-15949.2188,-15457.0312,-13354.9805,0
1.124625,13065.9180,1437.5000,8314.4531,11573.2422,0
1.128531,5065.4297,8996.0938,9035.6445,15172.3633,0
1.132437,-14925.7812,-15863.2812,-15339.8438,-13183.1055,0
1.136344,15690.9180,4312.9883,9564.4531,11822.7539,0
1.140250,1056.6406,12999.0234,15041.0156,11166.5039,0
1.156000,-14988.2812,-15996.0938,-15332.0312,-13425.2930,0
1.159906,-14058.5938,2312.5000,10189.4531,9447.2656,0
1.163813,13058.5938,12999.0234,-4971.1914,-855.4688,0
1.167719,-15035.1562,15972.6562,-15574.2188,-13714.3555,0
1.171625,-12433.1055,311.5234,10564.4531,12197.2656,0
1.175531,1050.7812,14989.2578,1019.5312,-844.7266,0
1.179438,-15167.9688,-15917.9688,-15503.9062,-13284.6680,0
1.183344,-15058.1055,2063.4766,10189.9414,12073.2422,0
1.187250,-2914.5508,13013.6719,-10957.0312,-14828.6133,0
1.218000,-14644.5312,-15957.0312,-15464.8438,4618.0665,0
1.221906,-13809.0820,3563.4766,8188.9648,3949.0430,0
1.225812,-4941.4062,15003.4180,-12974.1211,-10672.6368,0
1.229719,-15011.7188,-15996.0938,-15441.4062,7486.4063,0
1.233625,-14307.6172,1437.9883,10439.9414,14567.3242,0
1.237531,-8923.8281,-14989.7461,15038.0859,9207.6416,0
1.241437,-14886.7188,-15902.8320,-15339.8438,2119.5708,0
1.245344,-10558.1055,-2688.4766,12940.4297,-4968.5000,0
1.249250,-12937.9883,-12994.1406,-10959.9609,-12056.5709,0
1.265000,-14964.8438,-15957.5195,6229.3556,6343.4962,0
1.268906,-13682.1289,-687.0117,-9237.3634,-4126.6016,0
1.272813,3091.7969,3021.4844,-14919.9219,-12042.0899,0
1.276719,-14496.0938,-15738.2812,6952.6759,10680.9767,0
1.280625,-11058.1055,686.5234,-12667.9187,-10356.3326,0
1.281000,-14902.3438,141.0859,-15394.5312,-13276.8555,0
1.284531,7090.8203,-4995.1172,7700.2203,11008.7014,0
1.284906,-12683.1055,-6034.7109,8689.4531,11447.7539,0
1.288438,-14394.5312,-15824.2188,7201.4727,13009.8906,0
1.288813,-2919.9219,-14287.0469,7043.4570,13175.7812,0
1.292344,-7932.1289,187.9883,-13120.4219,-10638.5273,0
1.292719,-14660.1562,-1463.1035,-15261.7188,-13167.4805,0
1.296250,-14921.8750,7012.6953,8424.5820,10215.1328,0
1.296625,-9307.6172,6466.5715,10939.9414,12698.2422,0
1.300531,-8918.9453,1899.0820,13041.5039,-10823.2422,0
1.304438,-14636.7188,5081.7775,-15253.9062,-13120.6055,0
1.308344,-11932.6172,13467.1092,11939.4531,14573.2422,0
1.312250,5078.6133,743.4571,-10965.3320,-12825.1953,0
1.328000,-14785.1562,15925.7812,-15246.0938,-13222.1680,0
1.331906,-13808.1055,1437.5000,11689.9414,11072.7539,0
1.335812,5083.4961,-10992.6758,-8953.1250,7174.8047,0
1.339719,-14527.3438,-15855.4688,-15167.9688,-13050.2930,0
1.343625,-7932.1289,1437.5000,12314.4531,14573.2422,0
1.347531,-2910.1562,-2990.7227,-963.3789,-827.1484,0
1.351437,-14613.2812,-15964.8438,-15332.0312,-13269.0430,0
1.355344,-12057.1289,1437.9883,11940.4297,10697.7539,0
1.359250,11092.7734,9004.8828,1053.7109,-6820.3125,0
1.390000,-14519.5312,-15808.5938,10335.5860,5165.1563,0
1.393906,-8307.6172,2937.5000,-52.2071,690.1953,0
1.397813,15084.4727,11001.4648,-13332.1094,-11574.9024,0
1.401719,-14667.9688,-15910.1562,8000.9962,3131.4063,0
1.405625,-11432.1289,1937.9883,6236.8945,12067.7344,0
1.409531,15090.3320,-10987.3047,2901.3865,7270.1323,0
1.413438,-14722.6562,-15949.2188,337.3517,255.8738,0
1.417344,-11557.6172,687.9883,-2226.6831,-6758.3846,0
1.421250,-6917.9688,11005.3711,-4790.7179,-11938.4177,0
1.437000,-14605.4688,-15910.1562,-15128.9062,7918.6601,0
1.440906,-11057.6172,2062.5000,14565.4297,-9270.6914,0
1.444812,7083.4961,-2990.7227,-4946.7773,-11439.2930,0
1.448719,-14714.8438,-15917.9688,-15042.9688,5890.8476,0
1.452625,-10682.6172,2062.5000,15690.4297,-2995.6305,0
1.456531,15069.3359,-2992.6758,-14944.3359,-4343.7505,0
1.460437,-14917.9688,-15824.7070,-15121.0938,-5691.8705,0
1.464344,-14684.0820,-937.9883,10939.9414,-7039.9905,0
1.468250,5055.6641,10996.5820,-10954.5898,-8388.1105,0
1.484000,-15050.7812,15917.9688,-15269.5312,-13823.7305,0
1.487906,-13683.5938,1437.5000,10439.9414,6821.2891,0
1.491812,13051.7578,-2997.5586,7047.3633,-853.5156,0
1.495719,-14832.0312,-15910.1562,-15058.5938,-13472.1680,0
1.499625,-12934.0820,687.0117,13189.9414,7071.2891,0
1.503531,15062.5000,12993.1641,-14947.7539,-4844.2383,0
1.507437,-14996.0938,15910.1562,-15238.2812,-13565.9180,0
1.511344,15815.9180,437.5000,10064.4531,5696.7773,0
1.515250,-14957.0312,-997.5586,-8963.3789,3127.9297,0
1.531000,-15503.9062,15862.7930,-15519.5312,-14214.8438,0
1.534906,10190.4297,-1062.5000,8690.4297,-2054.6875,0
1.538813,5042.4805,-2997.5586,5047.8516,9123.0469,0
1.542719,-15394.5312,15948.7305,-15292.9688,-14011.7188,0
1.546625,8689.9414,-3187.9883,9439.4531,-429.6875,0
1.550531,-10939.9414,9013.6719,13046.8750,-10857.9102,0
1.554438,-15191.4062,-15855.9570,-15308.5938,-13854.9805,0
1.558344,10815.4297,-1062.5000,8939.9414,1320.3125,0
1.562250,15049.8047,-14994.1406,11041.5039,-4870.1172,0
1.578000,-15214.8438,15972.6562,-15464.8438,-14003.4180,0
1.581906,14190.9180,2312.9883,13190.9180,3196.7773,0
1.585812,1053.7109,-13006.3477,3035.1562,13146.9727,0
1.589719,-15160.1562,15917.9688,-15339.8438,-13769.0430,0
1.593625,11814.9414,1562.5000,12690.4297,1695.3125,0
1.597531,-12950.1953,-4996.0938,5045.4102,1121.0938,0
1.601437,-15128.9062,-15980.9570,-15441.4062,-14011.7188,0
1.605344,13065.9180,-812.9883,8814.4531,-430.1758,0
1.609250,-4931.1523,-14996.5820,-973.1445,-8868.1641,0
1.625000,-14972.6562,-15910.1562,-15496.0938,-13878.4180,0
1.628906,-15309.0820,312.5000,11815.4297,1195.8008,0
1.632812,-4947.7539,-8978.0273,7038.0859,-8866.6992,0
1.636719,-15136.7188,-15535.1562,-15378.9062,-13956.5430,0
1.640625,14690.4297,4312.5000,11939.9414,1445.3125,0
1.644531,-6942.8711,-2990.7227,-953.6133,1126.9531,0
1.648438,-14839.8438,-15738.2812,-15183.5938,-13854.9805,0
1.652344,-13934.0820,4312.9883,12439.4531,2570.3125,0
1.656250,-14948.7305,3002.4414,-2963.8672,-14872.0703,0
1.703000,-14855.4688,-15878.9062,7888.9509,-13901.8555,0
1.703000,-14855.4688,-15878.9062,7888.9509,-13901.8555,0
1.706906,-15433.1055,3187.9883,1837.7511,945.3125,0
1.706906,-15433.1055,3187.9883,1837.7511,945.3125,0
1.710812,3075.1953,5004.3945,-4213.4487,-2856.4453,0
1.710812,3075.1953,5004.3945,-4213.4487,-2856.4453,0
1.714719,-14746.0938,-15941.8945,-10264.6484,-13714.3555,0
1.714719,-14746.0938,-15941.8945,-10264.6484,-13714.3555,0
1.718625,15190.4297,-187.9883,-11741.7970,1195.3125,0
1.718625,15190.4297,-187.9883,-11741.7970,1195.3125,0
1.722531,3055.6641,14996.5820,8444.9804,-2866.2109,0
1.722531,3055.6641,14996.5820,8444.9804,-2866.2109,0
1.726437,-14957.0312,15847.1680,10193.4376,-13823.7305,0
1.726437,-14957.0312,15847.1680,10193.4376,-13823.7305,0
1.730344,15315.9180,-2562.0117,-11056.4063,1069.8242,0
1.730344,15315.9180,-2562.0117,-11056.4063,1069.8242,0
1.734250,15057.1289,13024.9023,7435.3907,-6877.4414,0
1.734250,15057.1289,13024.9023,7435.3907,-6877.4414,0
1.765000,-15230.4688,-15863.2812,8963.0860,-3876.1523,0
1.768906,11565.9180,3688.4766,14809.4336,5685.3516,0
1.772813,13066.4062,5019.0430,-10451.7970,-10529.2774,0
1.776719,-14980.4688,-15855.4688,6530.1759,-63.5742,0
1.780625,-12182.6172,1812.9883,-5812.2852,6397.9688,0
1.784531,7071.7773,-10981.9336,-9631.8136,2441.9824,0
1.788438,-14878.9062,-15910.6445,-10436.8698,-3135.3636,0
1.792344,-13308.1055,-312.9883,-11241.9260,-8712.7096,0
1.796250,9068.8477,-9013.1836,-12046.9822,-12972.9491,0
1.812000,-14894.5312,15894.5312,-15292.9688,-1436.1953,0
1.815906,15440.4297,187.5000,11314.4531,6838.2187,0
1.819812,-12944.3359,11005.8594,-14964.3555,-13615.9844,0
1.823719,-15035.1562,-15878.9062,-15316.4062,-3809.9648,0
1.827625,15316.4062,812.5000,10564.4531,8826.2853,0
1.831531,3062.9883,-8994.1406,11021.9727,5953.7281,0
1.835437,-14933.5938,-15910.1562,-15582.0312,3081.1710,0
1.839344,-15559.0820,1437.5000,9564.9414,208.6138,0
1.843250,13062.5000,5000.0000,-14960.4492,-2663.9433,0
1.859000,-14894.5312,15839.3555,-15386.7188,-14246.0938,0
1.862906,-14434.0820,-3188.4766,10189.4531,-5806.6406,0
1.866812,-12933.1055,14988.7695,13033.2031,-12899.4141,0
1.870719,-14792.9688,15878.4180,-15511.7188,-14277.3438,0
1.874625,-12933.1055,-1312.9883,8439.4531,-1429.6875,0
1.878531,-4930.6641,-3000.4883,-10964.3555,9118.6523,0
1.882437,-14847.6562,-15949.2188,-15316.4062,-14128.9062,0
1.886344,-14059.0820,1937.5000,10189.4531,-1555.1758,0
1.890250,-934.0820,-13006.8359,11031.2500,-14883.3008,0
1.906000,-14949.2188,15901.8555,-15371.0938,-14050.2930,0
1.909906,15065.9180,-562.9883,10563.9648,819.8242,0
1.913813,-10937.9883,-15000.9766,-4966.7969,9111.8164,0
1.917719,-14886.7188,15933.1055,-15308.5938,-14308.5938,0
1.921625,15189.9414,-1562.9883,9689.9414,-6681.6406,0
1.925531,-8953.6133,-14998.5352,1048.8281,13104.9805,0
1.929438,-15363.2812,-15965.3320,-15199.2188,-14285.1562,0
1.933344,10189.9414,-1687.9883,12564.9414,-7182.6172,0
1.937250,9038.5742,-15000.9766,7038.0859,-4918.4570,0
1.953000,-15417.9688,15972.1680,-15300.7812,-14675.7812,0
1.956906,7688.4766,-1813.4766,11064.9414,-12058.1055,0
1.960812,-8976.5625,-11009.2773,7038.0859,-12927.2461,0
1.964719,-15683.5938,15909.6680,-15386.7188,-14902.3438,0
1.968625,437.0117,-187.9883,10189.4531,15064.9414,0
1.972531,987.7930,-3001.9531,-2963.3789,-8968.2617,0
1.976437,15722.1680,-15980.4688,-15386.7188,-15472.6562,0
1.980344,-6064.4531,1687.9883,11440.4297,7562.9883,0
1.984250,4963.8672,13014.6484,1041.0156,13003.9062,0
2.000000,15503.4180,-15675.7812,-15347.6562,-15808.5938,0
2.003906,-10191.4062,3187.5000,8938.9648,311.5234,0
2.007812,-5045.4102,-14999.0234,11027.8320,-2993.1641,0
2.011719,15448.7305,-15988.2812,-15410.1562,-15902.8320,0
2.015625,-13441.4062,2938.9648,8689.4531,-5814.4531,0
2.019531,14944.8242,-10969.2383,15048.8281,-5010.7422,0
2.023438,14808.1055,-15777.3438,-15371.0938,15745.6055,0
2.027344,13058.5938,687.9883,7063.9648,-5063.4766,0
2.031250,10940.9180,-10982.4219,7027.3438,10993.1641,0
2.046000,15269.0430,-15644.5312,-15402.3438,-15980.4688,0
2.049906,-8439.4531,6313.4766,10439.9414,2187.9883,0
2.053812,6973.6328,13014.6484,1035.1562,-14997.0703,0
2.057719,15487.7930,-15800.7812,-15441.4062,15925.7812,0
2.061625,-6939.4531,3937.9883,8813.4766,3312.9883,0
2.065531,8972.6562,-978.5156,-2977.0508,-4992.6758,0
2.069437,15675.2930,-15675.7812,-15433.5938,-15699.2188,0
2.073344,-6563.9648,3062.9883,10814.9414,5313.9648,0
2.077250,-15014.6484,-8975.0977,-10955.0781,-6953.6133,0
2.078000,15714.3555,-15644.5312,-15457.0312,-15253.9062,0
2.081906,-3187.5000,3563.4766,10315.9180,13816.4062,0
2.085812,15010.2539,1018.0664,-14949.7070,-940.9180,0
2.089719,-15996.5820,-15628.9062,-15277.3438,-15222.6562,0
2.093625,-2562.9883,4187.9883,13064.9414,15315.9180,0
2.097531,-12994.1406,11023.9258,-12960.4492,-4952.6367,0
2.101437,-15910.1562,-15644.5312,-15238.2812,-15285.1562,0
2.105344,62.5000,2688.4766,9563.9648,12690.4297,0
2.109250,3010.7422,7033.6914,-4956.5430,11054.6875,0
2.140000,-15714.8438,-15347.6562,8121.8360,-15534.4336,0
2.143906,3188.4766,8438.9648,2877.9492,-1609.4140,0
2.147813,-10961.4258,9022.9492,-12963.0469,-12221.8751,0
2.151719,-15480.4688,-15605.4688,3118.5157,-12909.8437,0
2.155625,4312.9883,7188.9648,-4770.3125,8971.3282,0
2.159531,-12987.3047,-10980.9570,-7831.3762,6892.5491,0
2.163438,-15457.0312,-15730.4688,-8876.9134,-464.2562,0
2.167344,9313.4766,2562.5000,-9922.4506,-7821.0615,0
2.171250,-978.0273,-12992.6758,-10967.9878,-14545.5312,0
2.187000,-15558.5938,-14393.4240,-15183.5938,-2753.3203,0
2.190906,8063.4766,-14740.8317,11564.4531,10394.4179,0
2.194812,-14981.4453,-15088.2395,1030.2734,-13804.5937,0
2.198719,-15261.7188,-15435.6473,-15230.4688,-6037.0938,0
2.202625,14564.4531,-15783.0551,13939.9414,-12935.8564,0
2.206531,-14975.5859,2381.0078,-4960.9375,-13147.6171,0
2.210437,-15441.4062,4949.5430,-15269.5312,-13359.3779,0
2.214344,11189.9414,-13844.6406,13565.4297,-13571.1386,0
2.218250,-4953.6133,456.5664,1047.8516,-13782.8994,0
2.234000,-15394.5312,-15761.7188,-15113.2812,-14636.7188,0
2.237906,11440.4297,1937.9883,14189.9414,-7181.6406,0
2.241812,5040.5273,1010.2539,-14967.7734,11076.6602,0
2.245719,-15324.2188,-15816.4062,-15433.5938,-14753.9062,0
2.249625,10814.4531,3437.5000,12065.4297,-7807.1289,0
2.253531,-957.5195,-986.8164,11039.5508,15091.7969,0
2.257437,-15191.4062,-15808.5938,-15441.4062,-14425.7812,0
2.261344,11689.4531,4313.9648,12065.4297,-9057.1289,0
2.265250,-14960.9375,9015.6250,-10958.9844,-12902.8320,0
2.281000,-15175.7812,-15933.5938,-15332.0312,-14363.2812,0
2.284906,12314.9414,2313.4766,9939.4531,-7182.6172,0
2.288813,-14941.8945,-973.6328,-953.1250,15088.3789,0
2.292719,-14871.0938,-15730.4688,-15417.9688,-14378.9062,0
2.296625,-12808.5938,1937.9883,10815.4297,-4306.6406,0
2.300531,11066.4062,-2980.9570,1043.4570,13092.2852,0
2.304438,-14777.3438,-15621.0938,-15292.9688,-14347.6562,0
2.308344,-13308.1055,6813.4766,10439.9414,-3931.1523,0
2.312250,13079.1016,15019.0430,-10952.6367,-12895.0195,0
2.328000,-14714.8438,-15574.2188,-15128.9062,-14159.6680,0
2.331906,-9182.1289,4562.5000,15315.9180,570.8008,0
2.335812,-8934.5703,-8991.6992,-6954.1016,5116.2109,0
2.339719,-14957.0312,-15777.3438,-15425.7812,-14253.9062,0
2.343625,-11557.6172,4438.4766,12065.4297,-1430.6641,0
2.347531,9080.0781,1013.6719,9040.5273,-8899.9023,0
2.351437,-14824.2188,-15722.6562,-15371.0938,-14355.4688,0
2.355344,-11807.1289,3437.9883,12940.9180,-2555.1758,0
2.359250,5089.8438,-14988.2812,3049.3164,5129.3945,0
2.375000,-14652.3438,-15941.4062,-15136.7188,-13823.7305,0
2.378906,-11183.1055,2312.9883,14689.9414,4570.8008,0
2.382812,-8939.4531,-12987.7930,-12961.9141,11121.0938,0
2.386719,-14933.5938,-15910.1562,-15316.4062,-13886.2305,0
2.390625,-12558.1055,62.9883,12565.9180,4570.8008,0
2.394531,-6928.2227,9012.6953,-10943.8477,-879.3945,0
2.398438,-14878.9062,-15824.2188,-15246.0938,-14324.2188,0
2.402344,-12432.6172,2687.9883,10564.9414,-5930.6641,0
2.406250,-4906.2500,-10993.6523,7047.8516,-6872.5586,0
2.421000,-14496.0938,15987.7930,5999.7653,-13917.4805,0
2.424906,-8931.6406,-312.5000,-10947.8513,1570.8008,0
2.428812,5093.2617,-2997.5586,-15021.5625,-10868.1641,0
2.432719,-14691.4062,15870.6055,10249.3356,-14112.7930,0
2.436625,-10182.1289,-187.5000,-5111.7966,444.8242,0
2.440531,13084.4727,-10994.1406,-9625.5419,-2871.0938,0
2.444437,-14667.9688,-15871.0938,-10423.7130,-13698.7305,0
2.448344,-9432.6172,3312.9883,-11221.8841,5070.8008,0
2.452250,11074.2188,5007.3242,-12020.0553,5125.0000,0
2.468000,-14574.2188,-15792.9688,-15238.2812,-883.1640,0
2.471906,-9057.1289,1812.0117,12940.4297,11297.3243,0
2.475812,9094.2383,15005.8594,15050.2930,-9501.3868,0
2.479719,-14480.4688,-15902.8320,-15386.7188,-891.0742,0
2.483625,-7931.1523,-562.5000,7939.9414,11286.9922,0
2.487531,15104.9805,6999.5117,-10956.0547,7501.0986,0
2.491437,-14496.0938,-15964.8438,-15324.2188,790.8645,0
2.495344,-8806.6406,2062.9883,10314.4531,-5919.3697,0
2.499250,5104.4922,3015.1367,3033.2031,-12629.6038,0
2.531000,-14441.4062,-15738.7695,-3768.3946,749.5547,0
2.534906,-10932.1289,-687.9883,-6182.0589,-2671.5171,0
2.538813,-902.3438,-14991.6992,-7494.5009,-6714.0617,0
2.542719,-14785.1562,-15925.7812,-8806.9428,-10756.6063,0
2.546625,-14684.0820,187.5000,-10119.3848,-12577.1874,0
2.550531,15052.2461,2997.0703,-11431.8267,-4405.9766,0
2.554438,-15128.9062,-15949.2188,-12744.2687,-6475.4103,0
2.558344,-15558.1055,2812.5000,-14056.7106,-13817.4218,0
2.562000,-14894.5312,15729.9805,-15285.1562,-9303.5820,0
2.562250,-10929.1992,14992.6758,-13590.8122,-9134.5508,0
2.565906,-14309.0820,-1187.0117,11188.9648,-7662.4531,0
2.569812,15055.6641,1002.4414,-977.5391,-13766.3750,0
2.573719,-15152.3438,15987.7930,-15644.5312,-3889.1328,0
2.577625,13565.9180,-312.5000,7064.4531,6841.6046,0
2.581531,9051.7578,-14988.7695,5036.1328,4194.7454,0
2.585437,-15214.8438,-15847.6562,-15511.7188,1547.8862,0
2.589344,12690.9180,437.0117,4312.9883,-1098.9731,0
2.593250,-14937.9883,4995.6055,-4969.7266,-3745.8323,0
2.609000,-15152.3438,15972.6562,-15347.6562,-14417.9688,0
2.612906,10314.4531,187.5000,9814.4531,-4806.1523,0
2.616812,9039.5508,7002.4414,5025.8789,-12891.1133,0
2.620719,-15246.0938,15933.1055,-15542.9688,-14238.2812,0
2.624625,13065.9180,-62.0117,8439.9414,-4305.6641,0
2.628531,-14945.3125,-12989.2578,-10947.7539,-4873.5352,0
2.632437,-15191.4062,-15863.2812,-15292.9688,-13979.9805,0
2.636344,-15434.0820,3562.5000,11689.9414,70.3125,0
2.640250,15054.1992,-3004.3945,13030.2734,3120.1172,0
2.656000,-14902.3438,-15972.6562,-15417.9688,-14082.0312,0
2.659906,14941.4062,2062.5000,10439.9414,-2180.1758,0
2.663813,3074.7070,-6993.1641,9041.5039,-8863.7695,0
2.667719,-15019.5312,-15980.4688,-15324.2188,-14074.2188,0
2.671625,-15433.5938,687.9883,11565.4297,-3180.1758,0
2.675531,-14935.5469,1007.8125,3045.8984,5119.6289,0
2.679438,-14949.2188,-15941.8945,-15425.7812,-14089.8438,0
2.683344,13815.4297,-1437.9883,9189.9414,-2430.1758,0
2.687250,-12942.8711,4996.5820,-10957.0312,-12875.0000,0
2.703000,-14996.0938,15901.8555,-15433.5938,-14105.4688,0
2.706906,-15559.0820,-312.0117,9564.9414,-429.6875,0
2.710812,-14946.7773,5002.9297,15038.0859,7122.5586,0
2.714719,-15027.3438,-15925.7812,-15417.9688,-13917.4805,0
2.718625,-14808.1055,2312.5000,10815.4297,1445.3125,0
2.722531,5070.3125,-8998.5352,1053.2227,15125.4883,0
2.726437,-15019.5312,15894.0430,-15050.7812,-14082.0312,0
2.730344,-15683.5938,-2062.5000,15065.9180,-805.6641,0
2.734250,11063.9648,-12985.8398,3044.9219,13112.3047,0
2.750000,-14847.6562,-15839.8438,-15277.3438,-14042.9688,0
2.753906,-15184.0820,437.5000,15315.4297,-1055.1758,0
2.757812,-4923.8281,3007.8125,-8949.7070,3128.9062,0
2.761719,-14792.9688,-15840.3320,-15058.5938,-13808.1055,0
2.765625,-14557.6172,-1812.9883,14190.9180,1946.2891,0
2.769531,-10922.3633,-978.5156,9052.7344,9143.0664,0
2.773438,-14847.6562,-15621.0938,-15261.7188,-13831.5430,0
2.777344,-7806.6406,6688.4766,10814.9414,2821.2891,0
2.781250,-4916.0156,-2990.2344,-10947.7539,-12855.4688,0
2.796000,-14847.6562,-15917.9688,-15167.9688,-13823.7305,0
2.799906,-13308.1055,1562.5000,10189.4531,945.3125,0
2.803812,3062.0117,4989.7461,-8961.9141,7127.4414,0
2.807719,-15050.7812,15871.0938,-15371.0938,-13964.8438,0
2.811625,13064.9414,3813.4766,9313.9648,-3182.1289,0
2.815531,-12949.7070,-12988.2812,15030.2734,-14905.2734,0
2.819437,-15128.9062,-15793.4570,-15332.0312,-14191.4062,0
2.823344,14565.9180,-813.4766,11564.9414,-2055.6641,0
2.827250,1052.2461,-14997.5586,3032.7148,13103.0273,0
2.828000,-15089.8438,-15792.9688,-15386.7188,-14503.9062,0
2.831906,-14683.5938,4063.4766,10314.9414,-7806.1523,0
2.835812,5053.2227,9005.3711,5040.0391,-12896.9727,0
2.839719,-15183.5938,15815.9180,-15542.9688,-14449.2188,0
2.843625,13690.9180,-2062.9883,9064.4531,-5681.6406,0
2.847531,5045.4102,-11009.2773,-12979.9805,-6910.1562,0
2.851437,-15136.7188,15854.9805,-15574.2188,-14464.8438,0
2.855344,-15559.0820,-1062.9883,8438.9648,-8557.6172,0
2.859250,1052.7344,4990.2344,-970.7031,-10910.6445,0
2.875000,-15058.5938,10619.3788,-15503.9062,-14363.2812,0
2.878906,15316.4062,12015.4960,8938.9648,-3305.6641,0
2.882812,7068.8477,13411.6132,-10974.6094,3109.8633,0
2.886719,-14902.3438,14807.7303,-15558.5938,-14355.4688,0
2.890625,-13808.5938,13493.5157,8314.9414,-4555.1758,0
2.894531,9058.5938,2766.4648,7034.6680,1110.3516,0
2.898438,-15074.2188,10039.8439,-15511.7188,-14332.0312,0
2.902344,14690.9180,-13193.5157,7813.9648,-5556.1523,0
2.906250,-14948.2422,1368.3789,-2972.1680,1084.9609,0
2.937000,-15183.5938,15948.7305,-15480.4688,-7313.7188,0
2.940906,11814.4531,-63.4766,8063.4766,-11255.7305,0
2.944812,-949.7070,-6998.5352,-971.6797,-13817.9531,0
2.948719,-14957.0312,-15792.9688,-15542.9688,-5652.7539,0
2.952625,-15809.0820,812.5000,6939.4531,10803.0746,0
2.956531,3051.7578,-12992.6758,-10962.4023,7678.5672,0
2.960437,-15160.1562,-15902.3438,-15503.9062,4554.0598,0
2.964344,13815.4297,3187.5000,7064.4531,1429.5525,0
2.968250,13067.3828,-4998.0469,5034.6680,-1694.9549,0
2.984000,-14808.5938,-15934.0820,-15457.0312,-14292.9688,0
2.987906,13064.9414,-62.9883,10939.9414,-8056.6406,0
2.991812,-936.5234,-2992.1875,-12961.9141,15100.0977,0
2.995719,-14902.3438,-15785.1562,-15300.7812,-14464.8438,0
2.999625,15440.4297,562.0117,10314.4531,-9307.1289,0
3.003531,-934.0820,15003.9062,11029.2969,3096.1914,0
3.007437,-14933.5938,-15949.7070,-15621.0938,-14527.3438,0
3.011344,15191.4062,-437.9883,8439.4531,-10056.6406,0
3.015250,3056.6406,-8997.5586,-12975.0977,-896.4844,0
3.046000,-15214.8438,-15933.5938,-15722.6562,-14574.2188,0
3.049906,13940.4297,437.5000,4313.9648,-7807.1289,0
3.053812,5032.7148,-3004.8828,1035.6445,3078.6133,0
3.057719,-15503.9062,15862.7930,-15535.1562,-14707.0312,0
3.061625,8314.9414,-436.5234,5688.9648,-14433.5938,0
3.065531,9046.3867,1018.5547,-14975.0977,-923.3398,0
3.069437,-15457.0312,15925.2930,-15675.7812,-14800.7812,0
3.073344,8189.9414,-1437.9883,6939.4531,-14183.1055,0
3.077250,-12955.0781,-7005.8594,-2970.2148,1069.8242,0
3.093000,-15363.2812,-15902.3438,6208.1056,-14653.5937,0
3.096906,12940.4297,2187.0117,14269.1016,-13193.1836,0
3.100812,-10969.2383,-11003.4180,-10731.2501,-14718.5156,0
3.104719,-15503.9062,-15988.2812,3222.2657,6360.9962,0
3.108625,11440.9180,562.9883,-9800.9766,-7516.5430,0
3.112531,3053.2227,3009.7656,-13470.1742,-11829.8543,0
3.116437,-15496.0938,15995.6055,-14070.5954,-12892.7622,0
3.120344,2813.9648,-1187.5000,-14671.0166,-13955.6701,0
3.124250,7038.0859,-14999.0234,-15271.4379,-15018.5779,0
3.140000,-15457.0312,15910.1562,6841.0157,-11860.2539,0
3.143906,8314.9414,62.5000,11024.2578,-9336.6406,0
3.147813,11052.7344,11007.3242,-11378.7501,-14207.6563,0
3.151719,-15105.4688,-15902.3438,5111.4259,6125.6056,0
3.155625,12689.4531,812.5000,10718.2813,-5885.8790,0
3.159531,-10971.6797,12997.5586,5117.6551,-10303.6809,0
3.163438,-15425.7812,15979.9805,-1924.6640,-11917.8798,0
3.167344,8063.9648,-2063.9648,-8966.9831,-13532.0786,0
3.171000,-15238.2812,15870.6055,-15558.5938,-15042.9688,0
3.171250,-6952.6367,-9011.2305,-13870.6872,-13075.9684,0
3.174906,13565.9180,-3063.4766,10814.9414,15691.4062,0
3.178812,-10937.0117,-9006.8359,-6956.5430,11065.4297,0
3.182719,-14761.7188,15894.0430,-15246.0938,-14808.5938,0
3.186625,-10057.6172,-812.9883,10314.4531,-10807.1289,0
3.190531,-8915.5273,-5009.2773,-2960.4492,11099.1211,0
3.194437,-14550.7812,15878.4180,-15332.0312,-14378.9062,0
3.198344,-5930.6641,-187.9883,12065.4297,-3179.1992,0
3.202250,-10880.3711,-9008.3008,9046.3867,-2854.4922,0
3.203000,-13722.1680,15800.2930,-15214.8438,-13401.8555,0
3.206906,11323.7305,-5313.4766,15690.9180,-15800.2930,0
3.210812,-800.7812,10996.0938,15052.7344,-781.2500,0
3.214719,-12675.2930,15894.0430,-15121.0938,-12292.4805,0
3.218625,-7048.3398,-2187.9883,11314.9414,-1921.8750,0
3.222531,-6757.3242,-15002.9297,-4947.7539,-10733.3984,0
3.226437,-11979.4922,15776.8555,-15347.6562,-11674.8047,0
3.230344,2078.6133,-3813.4766,7313.9648,7080.5664,0
3.234250,-10727.0508,8995.1172,-4963.3789,-14701.6602,0
3.265000,-11682.6172,15964.3555,5156.0157,8135.9571,0
3.268906,2453.6133,-3438.4766,7363.5351,14734.8828,0
3.272813,15272.9492,-13001.9531,-11778.8282,-7216.3673,0
3.276719,-11596.6797,-15910.1562,4736.0157,4736.7969,0
3.280625,5454.1016,61.5234,-11195.6446,-1033.8086,0
3.284531,7260.7422,-5009.2773,-15016.7341,-4767.7354,0
3.288438,-11948.7305,15854.9805,-15084.9024,-7202.9347,0
3.292344,-672.3633,-2562.9883,-15153.0707,-9638.1340,0
3.296250,13241.6992,995.1172,-15221.2390,-11157.7928,0
3.312000,-12315.9180,15886.2305,-15496.0938,-1611.0273,0
3.315906,-7799.3164,-1438.4766,6188.9648,5309.5820,0
3.319812,9208.4961,-5011.2305,3029.2969,-12303.8867,0
3.323719,-12604.9805,15870.6055,-15457.0312,-6833.6133,0
3.327625,-9924.8047,-1937.9883,6438.9648,14877.1088,0
3.331531,13194.3359,12999.5117,11029.2969,11430.2445,0
3.335437,-13120.6055,15948.7305,-15660.1562,7983.3802,0
3.339344,13448.7305,-1937.5000,6064.4531,4536.5158,0
3.343250,-2813.9648,4997.0703,13029.2969,1089.6515,0
3.359000,-13261.2305,15792.4805,-15652.3438,-12808.1055,0
3.362906,9196.7773,-687.5000,8939.4531,-14801.2695,0
3.366812,-4858.3984,-9002.4414,-4969.7266,-12829.1016,0
3.370719,-13823.7305,15847.1680,-15425.7812,-13331.5430,0
3.374625,2445.8008,-3438.4766,7688.9648,9197.2656,0
3.378531,11127.9297,-5009.7656,-12976.5625,15144.5312,0
3.382437,-14026.8555,15870.6055,-15644.5312,-13901.8555,0
3.386344,1320.3125,-562.9883,7063.9648,3570.8008,0
3.390250,3119.1406,4991.2109,3030.2734,15133.3008,0
3.406000,-14011.7188,15995.6055,-15355.4688,-13901.8555,0
3.409906,-1055.1758,-1188.4766,10438.9648,1319.8242,0
3.413813,5134.2773,-15005.3711,1015.1367,-4881.3477,0
3.417719,-14042.9688,15972.1680,-15503.9062,-14034.6680,0
3.421625,-5306.1523,-312.9883,10064.9414,1945.8008,0
3.425531,-10895.0195,-3000.0000,11044.4336,-10869.6289,0
3.429438,-14285.1562,-15941.4062,-15386.7188,-13925.2930,0
3.433344,-5307.1289,687.0117,8064.4531,2569.8242,0
3.437250,-12915.0391,6983.8867,-2963.3789,-884.2773,0
3.453000,-14566.4062,15737.7930,-15503.9062,-14035.1562,0
3.456906,-9932.6172,-2563.4766,7063.9648,-1430.1758,0
3.460812,7080.5664,14988.7695,9034.1797,15127.4414,0
3.464719,-14808.5938,15823.7305,-15542.9688,-14066.4062,0
3.468625,-13058.1055,-3688.4766,6188.9648,-4806.6406,0
3.472531,11072.7539,-15020.5078,-8969.2383,-892.5781,0
3.476437,-14613.2812,15659.6680,-15472.6562,-14082.0312,0
3.480344,-12559.0820,-1062.9883,9439.4531,-5808.1055,0
3.484250,3067.3828,-1008.3008,15024.4141,-4916.0156,0
3.515000,-14769.5312,15737.7930,2584.3555,-6872.7929,0
3.518906,-14058.1055,-4188.9648,-8248.0274,11815.0977,0
3.522813,-12920.4102,-1019.5312,-14903.8281,-9760.7032,0
3.526719,-14699.2188,15667.4805,1959.3555,-9402.3633,0
3.530625,-11682.6172,-3437.9883,5071.1523,-14049.4291,0
3.531000,-14816.4062,-2437.0195,5043.4023,-14691.4062,0
3.534531,-12919.9219,6988.7695,433.7810,-5719.2508,0
3.534906,-12683.1055,7842.1758,-90.9186,-7181.6406,0
3.538438,-14800.7812,15878.4180,-5031.8397,7522.9258,0
3.538813,13065.4297,14179.9961,-5556.5393,9084.4727,0
3.542344,-11682.1289,-1813.4766,-10497.4604,-12415.9844,0
3.542719,-15019.5312,-6.9361,-11022.1600,-14699.2188,0
3.546250,7084.4727,-1009.2773,-14145.9373,-12876.6523,0
3.546625,15315.9180,-976.3747,-11944.9216,-12683.1055,0
3.550531,-6944.8242,-741.2891,5667.3241,-2919.9219,0
3.554438,-15175.7812,1677.4611,-5024.2580,-14832.0312,0
3.558344,14441.4062,12928.3396,-12416.0935,-11557.1289,0
3.562250,1063.9648,-3704.4923,5803.5157,5085.4492,0
3.578000,-14941.4062,15956.5430,-15652.3438,-14746.0938,0
3.581906,-13182.6172,-312.5000,6313.9648,-12182.6172,0
3.585812,1077.6367,2992.6758,1018.0664,15074.7070,0
3.589719,-14777.3438,15839.3555,-15730.4688,-14738.2812,0
3.593625,-13558.5938,-1312.9883,4813.9648,-8932.1289,0
3.597531,-2930.1758,4995.1172,7028.3203,11087.8906,0
3.601437,-14871.0938,15964.8438,-15605.4688,-14644.5312,0
3.605344,-14433.1055,312.5000,6688.9648,-11682.6172,0
3.609250,3070.8008,-7000.0000,-968.7500,11072.2656,0
3.640000,-15019.5312,-15980.4688,3018.1055,9722.6564,0
3.643906,-15808.1055,2062.5000,8635.6641,-3510.7227,0
3.647813,1065.9180,10998.0469,-11558.7501,-13679.2969,0
3.651719,-14925.7812,15925.2930,3351.4454,-15254.0039,0
3.655625,-14433.1055,-3437.9883,290.2539,-8281.8750,0
3.659531,3075.1953,13011.7188,-2548.8088,-8769.5106,0
3.663438,-14894.5312,-15839.8438,-4421.1118,-10943.5001,0
3.667344,14690.4297,312.0117,-6293.4149,-13117.4896,0
3.671250,13052.7344,-11004.8828,-8165.7179,-13346.4060,0
3.687000,-15011.7188,15909.6680,-15714.8438,-13547.5859,0
3.690906,14815.9180,-1812.5000,4563.9648,1291.5430,0
3.694812,-14934.0820,3003.9062,15024.9023,-12499.8437,0
3.698719,-14957.0312,-15910.1562,-15628.9062,10955.5781,0
3.702625,-15183.5938,937.0117,4938.4766,-8990.4593,0
3.706531,7060.5469,10997.5586,9021.4844,-9709.9653,0
3.710437,-14910.1562,15917.4805,-15691.4062,-10429.4712,0
3.714344,-13183.1055,-2188.4766,5313.9648,-11148.9772,0
3.718250,7081.5430,14992.1875,11024.9023,-11868.4832,0
3.734000,-14683.5938,-15902.3438,-15691.4062,-14769.5312,0
3.737906,-13808.1055,686.5234,3063.4766,-15558.5938,0
3.741812,1071.7773,-3012.6953,-14980.4688,-12919.9219,0
3.745719,-14972.6562,15761.2305,-15878.9062,-14792.9688,0
3.749625,12940.9180,-2812.9883,813.4766,-13057.1289,0
3.753531,-6942.8711,6985.3516,11029.2969,5087.4023,0
3.757437,-15386.7188,15690.9180,-15675.7812,-14738.2812,0
3.761344,9689.9414,-4688.4766,5063.4766,-10806.6406,0
3.765250,-2949.7070,-15006.3477,-4985.3516,1094.7266,0
3.781000,-15121.0938,15964.3555,-15746.0938,-14441.4062,0
3.784906,-15559.0820,-688.4766,6188.4766,-6181.6406,0
3.788813,-8956.0547,4986.3281,-6983.3984,7090.8203,0
3.792719,-15285.1562,15862.7930,-15675.7812,-14433.5938,0
3.796625,14066.4062,-1812.5000,1187.5000,-6930.6641,0
3.800531,-2941.4062,12995.6055,-10971.1914,11119.6289,0
3.804438,-15550.7812,15683.1055,-15574.2188,-14488.2812,0
3.808344,6064.4531,-4188.4766,4313.4766,-10307.6172,0
3.812250,-4959.9609,-11011.7188,5017.5781,7078.6133,0
3.828000,-15339.8438,15901.8555,-15683.5938,-14535.1562,0
3.831906,11813.9648,-2063.9648,6563.4766,-6181.6406,0
3.835812,-969.7266,14978.0273,-982.9102,11084.4727,0
3.839719,-15199.2188,15745.6055,-15683.5938,-14621.0938,0
3.843625,11813.9648,-3688.4766,4938.4766,-10682.6172,0
3.847531,-2966.3086,4983.3984,-14977.0508,9094.7266,0
3.851437,-15535.1562,15690.9180,-15652.3438,-14464.8438,0
3.855344,6564.9414,-4563.4766,4688.4766,-6180.6641,0
3.859250,9037.5977,8984.3750,-10980.4688,-8886.7188,0
3.890000,-15535.1562,15714.3555,-15644.5312,-14386.7188,0
3.893906,9439.4531,-937.9883,8313.9648,-5931.1523,0
3.897813,-2958.0078,-7007.3242,-14976.5625,-14884.7656,0
3.901719,-15269.5312,15941.4062,-15535.1562,-14121.0938,0
3.905625,11565.4297,562.5000,6188.4766,-3306.1523,0
3.909531,15057.1289,10998.5352,15019.0430,-2885.7422,0
3.913438,-15035.1562,15996.0938,-15667.9688,-14035.1562,0
3.917344,-14808.5938,312.0117,8439.4531,-1680.6641,0
3.921000,-14925.7812,-15902.3438,-15527.3438,-14253.9062,0
3.921250,3057.6172,-15003.4180,3022.9492,-6890.6250,0
3.924906,15440.4297,1062.0117,6813.4766,-5181.6406,0
3.928812,-8940.9180,10992.1875,-4972.6562,-14893.0664,0
3.932719,-14925.7812,15847.1680,-15628.9062,-14207.0312,0
3.936625,-14183.5938,-312.0117,6188.9648,-4555.6641,0
3.940531,15059.5703,10997.5586,-12978.5156,9119.6289,0
3.944437,-15175.7812,15784.6680,-15675.7812,-14128.9062,0
3.948344,10814.9414,-4063.4766,6563.9648,-4306.1523,0
3.952250,13048.3398,2986.8164,11022.4609,-4895.9961,0
3.953000,-15222.6562,15823.7305,-15597.6562,-14425.7812,0
3.956906,11689.4531,-2813.9648,6438.9648,-6181.6406,0
3.960812,-12961.4258,14984.8633,5029.7852,13101.0742,0
3.964719,-15378.9062,15761.2305,-15636.7188,-14410.1562,0
3.968625,10815.4297,-3188.4766,6313.9648,-5556.1523,0
3.972531,7028.3203,-3026.8555,5009.7656,-4905.2734,0
3.976437,-15597.6562,15550.2930,-15816.4062,-14597.6562,0
3.980344,9188.9648,-3563.9648,4188.4766,-8306.6406,0
3.984250,-4973.6328,10977.0508,15018.5547,-4891.1133,0
4.000000,-15488.2812,13351.4553,-15800.7812,-14269.5312,0
4.003906,12565.9180,13940.3453,7314.4531,-3680.6641,0
4.007812,-10957.0312,14529.2353,-6979.9805,15098.1445,0
4.011719,-15300.7812,15118.1254,-15761.7188,-14417.9688,0
4.015625,13939.9414,12244.5899,4937.9883,-6557.1289,0
4.019531,11037.5977,-2491.9923,11014.6484,-2903.8086,0
4.023438,-15300.7812,13412.5195,-15535.1562,-14324.2188,0
4.027344,11564.9414,12636.6993,7063.4766,-5681.6406,0
4.031250,-2963.3789,-3691.4648,-4984.3750,-896.4844,0
4.062000,-15410.1562,15722.1680,-15675.7812,-14402.3438,0
4.065906,11065.4297,-4063.4766,7688.9648,-4556.1523,0
4.069812,3045.8984,14987.7930,5013.1836,-6903.3203,0
4.073719,-15277.3438,15792.4805,-15628.9062,-14347.6562,0
4.077625,13316.4062,-5438.4766,7813.9648,-3305.1758,0
4.081531,-2939.9414,5005.3711,1016.6016,13101.5625,0
4.085437,-15496.0938,-15949.7070,-15636.7188,-14800.7812,0
4.089344,11565.9180,-1187.9883,8688.9648,-7930.6641,0
4.093250,15049.8047,994.1406,-8979.9805,1087.4023,0
4.109000,-15183.5938,15800.2930,-15785.1562,-14605.4688,0
4.112906,15316.4062,-1437.5000,3063.4766,-8557.1289,0
4.116812,11060.0586,4984.3750,3023.9258,-12904.7852,0
4.120719,-15128.9062,15683.1055,-15613.2812,-14417.9688,0
4.124625,13690.9180,-2937.9883,3062.9883,-4931.1523,0
4.128531,7054.6875,-9000.4883,-4978.0273,-12899.9023,0
4.132437,-15136.7188,15800.2930,-15808.5938,-14550.7812,0
4.136344,-15059.0820,-1938.4766,2687.9883,-8432.1289,0
4.140250,13045.4102,-1021.9727,3000.0000,-6911.1328,0
4.156000,-15285.1562,15636.2305,-15753.9062,-14519.5312,0
4.159906,10815.4297,-5813.4766,6938.4766,-6306.6406,0
4.163813,5044.9219,4988.7695,-6981.9336,1085.9375,0
4.167719,-15199.2188,15847.1680,-15652.3438,-14636.7188,0
4.171625,12065.4297,-2312.9883,4312.9883,-11057.6172,0
4.175531,7057.1289,12994.6289,15006.8359,15087.8906,0
4.179438,-15136.7188,15769.0430,-15832.0312,-14542.9688,0
4.183344,12815.4297,-2312.9883,5938.9648,-11057.6172,0
4.187250,-10948.7305,10994.1406,3013.1836,3082.0312,0
4.203000,-15253.9062,15800.2930,-15847.6562,-14683.5938,0
4.206906,11439.9414,-3312.9883,5438.4766,-9306.6406,0
4.210812,15039.0625,-6996.5820,-982.4219,3098.1445,0
4.214719,-15535.1562,15987.7930,-15746.0938,-14566.4062,0
4.218625,5688.9648,-2563.4766,3813.4766,-10557.1289,0
4.222531,-8974.1211,-15011.2305,-14979.4922,7084.9609,0
4.226437,-15636.7188,15854.9805,-15722.6562,-14480.4688,0
4.230344,7563.9648,-2938.9648,4437.9883,-7307.1289,0
4.234250,-6974.6094,-3015.1367,-991.2109,7086.9141,0
4.250000,-15527.3438,15792.4805,-15847.6562,-14574.2188,0
4.253906,5938.4766,-2812.9883,5439.4531,-7306.6406,0
4.257812,-2971.6797,-995.6055,9033.6914,-902.3438,0
4.261719,-15644.5312,15933.1055,-15496.0938,-14457.0312,0
4.265625,5313.4766,-2563.4766,5312.9883,-7807.1289,0
4.269531,-12981.4453,-7006.3477,-10984.3750,-10906.7383,0
4.273438,-15621.0938,15948.7305,-15691.4062,-14386.7188,0
4.277344,6313.4766,-2313.4766,4437.9883,-1805.6641,0
4.281250,5020.9961,-9010.7422,7014.1602,-12901.3672,0
4.296000,-15628.9062,15784.6680,-15582.0312,-14324.2188,0
4.299906,6939.4531,-1812.9883,6688.9648,-3305.6641,0
4.303812,-2961.9141,8995.1172,-8971.1914,13111.8164,0
4.307719,-15527.3438,15941.4062,-15613.2812,-14300.7812,0
4.311625,9314.4531,937.5000,7563.9648,-3931.1523,0
4.315531,-6975.5859,10995.1172,-8985.3516,13090.3320,0
4.319437,-15457.0312,15972.1680,-15769.5312,-14613.2812,0
4.323344,11064.4531,-1563.4766,5312.9883,-8557.1289,0
4.327250,9029.7852,-7009.7656,13015.1367,3085.9375,0
4.328000,-15292.9688,15800.2930,-15511.7188,-14511.7188,0
4.331906,12439.9414,-4813.4766,6938.9648,-9683.1055,0
4.335812,3038.5742,10992.6758,-12974.1211,9065.9180,0
4.339719,-15496.0938,15847.1680,-15691.4062,-14808.5938,0
4.343625,6313.4766,-1812.9883,5813.4766,-12683.5938,0
4.347531,-8975.0977,-10999.0234,13019.0430,-2928.7109,0
4.351437,-15542.9688,15886.2305,-15777.3438,-14957.0312,0
4.355344,5563.4766,-2312.9883,3063.4766,-15933.5938,0
4.359250,-6978.0273,6984.8633,13018.5547,11066.8945,0
4.375000,-15472.6562,11488.0788,-15753.9062,-14957.0312,0
4.378906,9313.9648,12604.9477,3562.9883,14315.9180,0
4.382812,-984.3750,13721.8166,-8995.6055,-10940.4297,0
4.386719,-15832.0312,14838.6856,15996.0938,-14878.9062,0
4.390625,5688.4766,12402.4024,2187.9883,-11807.6172,0
4.394531,-4981.9336,-2384.3360,-12991.6992,11088.8672,0
4.398438,-15652.3438,13432.7148,-15722.6562,-14691.4062,0
4.402344,8438.9648,12309.5118,4937.9883,-11932.6172,0
4.406250,-12972.1680,-6220.2930,-6968.7500,1092.2852,0
4.437000,-15371.0938,-15980.9570,-15441.4062,-2968.6875,0
4.440906,7438.9648,-2438.4766,2062.5000,-7533.5156,0
4.444812,11031.7383,-1011.7188,1013.1836,-12235.8242,0
4.448719,-15582.0312,15714.3555,-15714.8438,1854.5586,0
4.452625,8064.9414,-1562.5000,3938.9648,-4992.1183,0
4.456531,3035.1562,6991.6992,-12976.5625,-6151.0654,0
4.460437,-15261.7188,15988.2812,-15644.5312,-7310.0125,0
4.464344,13564.9414,2062.0117,7438.9648,-8468.9595,0
4.468250,-10973.1445,-7008.7891,15015.1367,-9627.9066,0
4.484000,-15792.9688,15823.7305,-15839.8438,-14300.7812,0
4.487906,6063.9648,-3313.9648,5063.4766,-4556.1523,0
4.491812,11024.4141,-9013.6719,-975.0977,9098.1445,0
4.495719,-15566.4062,15925.2930,-15691.4062,-14292.9688,0
4.499625,7313.9648,-3313.9648,5188.9648,-4806.1523,0
4.503531,9021.9727,14979.9805,-14976.0742,5102.0508,0
4.507437,-15628.9062,15651.8555,-15675.7812,-14332.0312,0
4.511344,6814.4531,-3937.9883,6563.9648,-2555.1758,0
4.515250,3035.6445,6998.5352,-8971.1914,5116.6992,0
4.546000,-15457.0312,15862.7930,2574.7654,-4141.9728,0
4.549906,5438.9648,-5063.9648,8562.7148,2261.8163,0
4.553812,1027.8320,8974.6094,-11458.9841,-11351.3279,0
4.557719,-15535.1562,15675.2930,4841.0154,-2723.6330,0
4.561625,12064.9414,-1688.4766,5612.4610,-828.4180,0
4.565531,-8965.8203,-3015.6250,749.2269,-3593.1803,0
4.569437,-15300.7812,15792.4805,-4342.6068,-6822.7151,0
4.573344,9189.9414,-2688.4766,-9434.4405,-10052.2500,0
4.577250,-4942.8711,983.3984,-14526.2742,-13281.7848,0
4.578000,-15207.0312,15800.2930,-15503.9062,-13901.8555,0
4.581906,11315.4297,-2062.5000,8688.9648,2070.3125,0
4.585812,3051.7578,991.2109,-2970.2148,3128.4180,0
4.589719,-14964.8438,15769.5312,-15574.2188,-13792.4805,0
4.593625,-15934.5703,62.9883,6813.9648,1694.8242,0
4.597531,9044.9219,-10991.6992,-6964.8438,-8871.5820,0
4.601437,-15285.1562,15917.9688,-15425.7812,-13917.4805,0
4.605344,12815.4297,437.9883,8313.9648,320.3125,0
4.609250,-6944.3359,-14993.1641,-2977.0508,7128.9062,0
4.625000,-15136.7188,-15965.3320,-15738.2812,-14152.3438,0
4.628906,10314.9414,-1812.9883,3937.9883,-6306.1523,0
4.632812,13047.3633,12999.5117,9013.1836,-8888.6719,0
4.636719,-15175.7812,-15957.0312,-15667.9688,-14152.3438,0
4.640625,14065.9180,1687.9883,5062.9883,-679.6875,0
4.644531,9051.2695,8998.5352,-994.1406,1119.1406,0
4.648438,-15371.0938,15714.3555,-15832.0312,-14277.3438,0
4.652344,11689.9414,-3063.4766,6313.9648,-3930.6641,0
4.656000,-15324.2188,15730.4688,-15488.2812,-14183.5938,0
4.656250,-14963.8672,-5019.0430,-2970.2148,-2883.7891,0
4.659906,11189.9414,562.5000,10814.9414,-3055.1758,0
4.663813,7026.8555,2990.7227,11028.3203,13109.8633,0
4.667719,-15449.2188,15972.1680,-15667.9688,-14230.4688,0
4.671625,10689.4531,-1438.4766,4688.4766,-2431.1523,0
4.675531,-961.9141,-5008.3008,5016.6016,-4892.0898,0
4.679438,-15339.8438,15870.6055,-15824.2188,-14191.4062,0
4.683344,11564.9414,-812.9883,3313.4766,-1680.6641,0
4.687250,5044.4336,12994.6289,-8981.4453,-2880.8594,0
4.703000,-15308.5938,15948.7305,-15667.9688,-13995.6055,0
4.706906,9814.9414,-1187.9883,4812.9883,444.8242,0
4.710812,11032.2266,-11003.4180,9011.7188,-8884.2773,0
4.714719,-15433.5938,15870.6055,-15753.9062,-14026.8555,0
4.718625,12689.9414,-2437.9883,5438.9648,1445.3125,0
4.722531,1019.0430,14994.6289,-6979.9805,-14878.4180,0
4.726437,-15636.7188,15683.1055,-15855.4688,-14261.7188,0
4.730344,9314.4531,-5688.4766,3688.9648,-4180.6641,0
4.734250,-957.5195,-6999.0234,-12963.8672,-6879.3945,0
4.750000,-15324.2188,-11599.5260,-15582.0312,-13964.8438,0
4.753906,8689.4531,-12740.5237,3187.9883,-305.6641,0
4.757812,3031.7383,-13881.5213,-6979.4922,1105.4688,0
4.761719,-15519.5312,-15022.5190,-15488.2812,-14191.4062,0
4.765625,7563.9648,-13634.0821,8939.4531,-4180.6641,0
4.769531,5027.8320,977.0117,11033.6914,15120.6055,0
4.773438,-15605.4688,13476.3867,-15566.4062,-14199.2188,0
4.777344,4689.4531,13193.0274,5938.9648,-3555.6641,0
4.781250,-4967.2852,-2969.2578,-6966.7969,5104.0039,0
4.812000,-15566.4062,15823.7305,-15511.7188,-2530.6289,0
4.815906,8688.4766,-1688.4766,7938.9648,5083.5625,0
4.819812,-2978.5156,-5007.8125,-14980.9570,-12901.3750,0
4.823719,-15519.5312,15815.9180,-15753.9062,-2790.3047,0
4.827625,8189.4531,-5313.9648,5813.9648,-10923.1957,0
4.831531,13036.1328,-9014.1602,-8973.6328,-11318.4223,0
4.835437,-15339.8438,15784.6680,-15464.8438,-11713.6490,0
4.839344,9939.4531,-2688.4766,8063.4766,-12108.8757,0
4.843250,11041.5039,-7012.2070,-988.2812,-12504.1023,0
4.875000,-15238.2812,-1497.7852,7874.4219,-2270.8633,0
4.878906,10814.4531,-12041.3672,-2396.8203,3259.1055,0
4.882812,13029.2969,14213.1836,-13582.4531,-13059.5156,0
4.886719,-15550.7812,-2007.3203,7714.4649,-2631.5820,0
4.890625,6313.4766,-4509.6261,14283.8890,-7058.7681,0
4.894531,13016.6016,700.1604,6646.3807,-8896.7256,0
4.898438,-15636.7188,5909.9470,-991.1276,-10734.6831,0
4.902344,7313.9648,11119.7335,-8628.6359,-12572.6405,0
4.906000,-15652.3438,15996.0938,-15777.3438,-14292.9688,0
4.906250,-6974.1211,14976.2813,-14619.5626,-13661.7500,0
4.909906,5688.9648,61.5234,2312.9883,-4430.1758,0
4.913813,-12970.7031,6983.8867,-4975.0977,11117.1875,0
4.917719,-15527.3438,15972.1680,-15472.6562,-14230.4688,0
4.921625,6563.9648,-312.9883,9064.4531,-3680.6641,0
4.925531,-2968.2617,-9001.9531,15023.4375,3108.8867,0
4.929438,-15605.4688,15800.2930,-15683.5938,-14261.7188,0
4.933344,7314.4531,-4563.4766,4938.4766,-3930.1758,0
4.937250,11031.2500,12989.2578,9024.4141,1125.4883,0
4.953000,-15535.1562,15784.6680,-15652.3438,-14050.7812,0
4.956906,8314.9414,-4437.9883,6064.4531,-2805.1758,0
4.960812,13047.3633,13010.7422,9026.3672,-2879.8828,0
4.964719,-15472.6562,-15917.9688,-15597.6562,-14222.6562,0
4.968625,9315.4297,812.0117,8814.4531,-1305.1758,0
4.972531,3035.6445,-999.0234,7030.7617,-6883.3008,0
4.976437,-15386.7188,-15816.4062,-15574.2188,-13987.7930,0
4.980344,12814.9414,1187.0117,6689.4531,3195.3125,0
4.984250,-4963.8672,-11000.0000,3028.8086,5123.0469,0
5.000000,-15316.4062,-15910.1562,-15558.5938,-13815.9180,0
5.003906,12439.9414,687.0117,6312.9883,3195.3125,0
5.007812,5041.5039,8990.7227,-8984.8633,-14869.1406,0
5.011719,-15386.7188,15800.2930,-15652.3438,-13964.3555,0
5.015625,8439.9414,-2438.4766,7688.9648,1320.8008,0
5.019531,-10956.0547,12981.4453,-2978.0273,-14868.1641,0
5.023438,-15300.7812,15800.2930,-15691.4062,-13917.4805,0
5.027344,13565.4297,-2437.9883,5813.9648,320.3125,0
5.031250,9042.9688,-15006.3477,-4979.4922,5115.2344,0
5.046000,-15292.9688,15909.6680,-15683.5938,-14269.5312,0
5.049906,11564.4531,-938.4766,6062.9883,-3180.6641,0
5.053812,-2958.9844,-3005.3711,-10983.8867,-10876.4648,0
5.057719,-15144.5312,15870.6055,-15558.5938,-14019.5312,0
5.061625,11689.9414,-1812.9883,5938.4766,-1055.1758,0
5.065531,-6948.2422,2989.7461,9020.9961,1115.7227,0
5.069437,-15199.2188,15839.3555,-15621.0938,-14105.4688,0
5.073344,11814.4531,-812.9883,6563.9648,-1180.1758,0
5.077250,15037.1094,-15003.4180,1025.8789,15116.6992,0
5.078000,-15277.3438,15995.6055,-15582.0312,-14136.7188,0
5.081906,11689.9414,-187.9883,5814.4531,-555.1758,0
5.085812,13039.0625,-9014.1602,3027.8320,-10883.3008,0
5.089719,-15449.2188,15761.2305,-15753.9062,-14230.4688,0
5.093625,8814.9414,-2313.4766,4438.4766,-1054.6875,0
5.097531,-8951.6602,14981.9336,-4972.6562,-12879.8828,0
5.101437,-15207.0312,15816.4062,-15574.2188,-13995.6055,0
5.105344,15315.9180,687.0117,7564.9414,3570.8008,0
5.109250,-6947.2656,-13012.2070,3030.2734,3124.0234,0
5.125000,-15167.9688,1761.4210,-15785.1562,-14027.3438,0
5.128906,10815.4297,5425.5153,4438.9648,-3430.6641,0
5.132812,3065.9180,9089.6095,1021.9727,1118.1641,0
5.136719,-14894.5312,12753.7038,-15503.9062,-14058.5938,0
5.140625,15315.9180,12748.4180,7688.9648,-929.6875,0
5.144531,-8943.8477,-2087.9102,11026.8555,-6868.1641,0
5.148438,-15191.4062,6758.0468,-15683.5938,-14097.6562,0
5.152344,12689.9414,13399.7462,4313.4766,-680.1758,0
5.156250,5033.6914,-636.1719,1018.0664,13107.9102,0
5.187000,-15527.3438,15683.1055,-15644.5312,-3535.9766,0
5.190906,6064.4531,-2812.9883,5939.4531,-7604.5547,0
5.194812,9037.5977,-11003.4180,1030.7617,-13716.2187,0
5.198719,-15433.5938,15839.3555,-15558.5938,-5236.1406,0
5.202625,7564.4531,-2937.9883,7189.4531,12758.2354,0
5.206531,3041.0156,15005.3711,-10956.0547,9365.0171,0
5.210437,-15355.4688,15956.5430,-15441.4062,5971.7989,0
5.214344,11439.4531,-688.4766,5687.9883,2578.5806,0
5.218250,-10974.6094,-13019.0430,-2988.2812,-814.6377,0
5.234000,-15363.2812,15956.5430,-15660.1562,-14496.0938,0
5.237906,13065.4297,-937.9883,6563.4766,-7931.6406,0
5.241812,-6958.4961,-14998.5352,13011.2305,13095.7031,0
5.245719,-15386.7188,15948.7305,-15675.7812,-14441.4062,0
5.249625,11439.9414,-2438.4766,6688.9648,-6431.6406,0
5.253531,-6947.2656,-4999.0234,11025.3906,-6891.1133,0
5.257437,-14972.6562,-15941.8945,-15675.7812,-14253.9062,0
5.261344,-13432.6172,-937.9883,6189.4531,-2680.6641,0
5.265250,13083.9844,6994.6289,1035.1562,-8890.6250,0
5.281000,-14675.7812,-15972.6562,-15410.1562,-14332.0312,0
5.284906,-8806.1523,1937.9883,6688.4766,-5431.1523,0
5.288813,15103.0273,3004.3945,-12975.5859,-10881.8359,0
5.292719,-14394.5312,-15926.2695,-15488.2812,-13871.0938,0
5.296625,-6931.6406,-687.9883,7063.4766,-2306.1523,0
5.300531,-10894.0430,3001.9531,-10977.0508,-14894.0430,0
5.304438,-14480.4688,-15910.1562,-15566.4062,-14449.2188,0
5.308344,-11808.1055,687.5000,7813.4766,-6931.6406,0
5.312250,7076.6602,998.0469,-8981.9336,5092.2852,0
5.343000,-14746.0938,-15980.4688,-15652.3438,-9110.2734,0
5.346906,-10307.1289,1062.5000,5438.9648,-7095.8008,0
5.350812,-916.9922,13000.9766,11017.5781,-13072.7344,0
5.354719,-14699.2188,15940.9180,-15761.7188,-5582.3632,0
5.358625,-11058.1055,-312.9883,5687.9883,-4752.4414,0
5.362531,-12919.9219,14988.2812,-983.8867,-6922.3429,0
5.366437,-14535.1562,15925.7812,-15464.8438,-9319.5471,0
5.370344,-10057.6172,1562.0117,9813.9648,-11716.7513,0
5.374250,11081.5430,-7004.8828,5020.9961,-14113.9555,0
5.375000,-14800.7812,15886.2305,-15597.6562,-14574.2188,0
5.378906,-15808.1055,-2687.0117,6564.4531,-12057.6172,0
5.382812,1068.8477,3013.1836,-6971.6797,-14909.6680,0
5.386719,-15003.9062,-15972.6562,-15675.7812,-14660.1562,0
5.390625,-14683.5938,437.0117,5437.9883,-11182.6172,0
5.394531,7062.9883,10993.6523,-12973.1445,-14914.0625,0
5.398438,-15128.9062,15972.1680,-15347.6562,-14746.0938,0
5.402344,13315.9180,-1812.9883,8563.4766,-11558.1055,0
5.406250,11058.1055,-13009.2773,-972.1680,-2916.0156,0
5.421000,-14894.5312,15816.4062,2933.1052,-14472.6562,0
5.424906,-15684.5703,937.9883,-8190.8982,-11307.6172,0
5.428812,-4937.0117,11019.0430,-14910.9374,-900.3906,0
5.432719,-14949.2188,-15809.0820,3532.6951,-14535.1562,0
5.436625,15065.4297,-187.9883,329.8438,-10808.5938,0
5.440531,-6949.7070,-13006.3477,-4051.9205,-2934.0820,0
5.444437,-15042.9688,15910.1562,-7713.0611,-14808.5938,0
5.448344,-15933.5938,312.5000,-11374.2017,-11932.1289,0
5.452250,1074.7070,-6992.6758,-15035.3423,5103.0273,0
5.453000,-14964.8438,-15941.8945,-15738.2812,-14527.3438,0
5.456906,13315.4297,-187.9883,3063.4766,-13183.1055,0
5.460812,-4951.6602,-13004.3945,-2967.7734,9077.6367,0
5.464719,-15308.5938,15941.4062,-15503.9062,-14636.7188,0
5.468625,9564.9414,62.0117,7938.9648,-11183.1055,0
5.472531,9045.8984,-5005.8594,-2981.9336,3076.6602,0
5.476437,-15230.4688,15862.7930,-15769.5312,-14707.0312,0
5.480344,15816.4062,-3813.4766,5563.9648,-9681.6406,0
5.484250,13045.8984,-2999.0234,7029.7852,-10916.0156,0
5.515000,-15394.5312,15948.7305,1211.4454,-6032.7929,0
5.518906,8814.9414,-4188.4766,9977.6367,-13211.7774,0
5.522813,3047.3633,-3007.3242,-11317.1095,-14230.0781,0
5.526719,-15300.7812,15753.4180,2811.8555,-7134.4531,0
5.530625,13066.4062,-4063.4766,6903.3594,8392.1485,0
5.534531,1069.8242,8991.2109,4587.6167,5385.9925,0
5.538438,-15027.3438,15854.9805,1697.1306,-1412.4446,0
5.542344,14440.9180,-1312.9883,-1193.3554,-8210.8817,0
5.546250,-10949.2188,979.0039,-4083.8415,-14221.0937,0
5.562000,-15339.8438,15737.7930,-15738.2812,-11046.5625,0
5.565906,12065.4297,-2313.9648,4813.4766,6772.8672,0
5.569812,-4937.0117,12985.8398,13029.7852,-14818.4375,0
5.573719,-14949.2188,15870.6055,-15464.8438,-11610.5390,0
5.577625,10064.4531,-4187.9883,5563.4766,8798.4187,0
5.581531,3041.0156,993.6523,-14971.1914,5879.7247,0
5.585437,-15441.4062,15800.2930,-15621.0938,2961.0307,0
5.589344,10315.4297,-2313.4766,5562.9883,42.3368,0
5.593250,-14949.7070,-1007.3242,11007.3242,-2876.3572,0
5.609000,-15261.7188,15988.2812,-15457.0312,-14644.5312,0
5.612906,11315.4297,62.0117,9688.9648,-8056.6406,0
5.616812,9048.3398,10981.4453,11020.0195,15084.9609,0
5.620719,-15183.5938,15706.5430,-15691.4062,-14496.0938,0
5.624625,14190.4297,-2062.9883,4562.9883,-5056.6406,0
5.628531,-2945.8008,-4995.6055,-10988.7695,15103.0273,0
5.632437,-15066.4062,-15894.5312,-15777.3438,-14191.4062,0
5.636344,14815.4297,937.0117,4313.4766,-2430.6641,0
5.640250,-14953.6133,2993.6523,5019.0430,9108.8867,0
5.656000,-15152.3438,15956.5430,-15527.3438,-14035.1562,0
5.659906,11814.9414,-1812.9883,6688.4766,-1556.1523,0
5.663813,7046.3867,2992.6758,-10976.5625,-4880.3711,0
5.667719,-15222.6562,15979.9805,-15707.0312,-13996.0938,0
5.671625,12939.9414,-813.9648,4938.9648,-1305.6641,0
5.675531,-6959.4727,-15017.5781,7026.8555,-4878.4180,0
5.679438,-15386.7188,15941.4062,-15691.4062,-14073.7305,0
5.683344,12315.9180,937.5000,4313.4766,445.8008,0
5.687250,1038.0859,8991.2109,-6992.6758,3116.2109,0
5.703000,-15175.7812,-15996.0938,-15886.7188,-13886.2305,0
5.706906,-15809.5703,2437.5000,5938.4766,4195.3125,0
5.710812,11052.7344,7000.4883,7013.1836,-14866.2109,0
5.714719,-15089.8438,-15973.1445,-15660.1562,-13831.5430,0
5.718625,14315.9180,-1188.4766,6939.4531,1695.8008,0
5.722531,9056.1523,-5009.7656,13031.2500,13136.2305,0
5.726437,-15183.5938,15808.1055,-15691.4062,-13941.4062,0
5.730344,12689.9414,-2813.9648,4688.4766,-555.1758,0
5.734250,-954.1016,14987.3047,13015.6250,1115.7227,0
5.750000,-15160.1562,-15996.5820,-15683.5938,-14050.2930,0
5.753906,15566.4062,-1562.9883,5813.9648,320.3125,0
5.757812,1065.4297,989.7461,-12972.6562,3133.3008,0
5.761719,-14988.2812,15745.6055,-15792.9688,-13964.8438,0
5.765625,-14558.1055,-3062.9883,4438.9648,-1429.6875,0
5.769531,5062.5000,-4998.0469,13026.8555,15132.3242,0
5.773438,-14941.4062,15925.2930,-15660.1562,-13972.6562,0
5.777344,-15308.5938,-1937.5000,5314.4531,-179.6875,0
5.781000,-14964.8438,4556.9141,-15496.0938,-14089.8438,0
5.781250,1067.8711,5000.9766,13040.0391,-4871.0938,0
5.784906,13690.9180,7703.1012,4063.4766,-2930.1758,0
5.788813,7066.8945,10589.9865,-14968.7500,9129.8828,0
5.792719,-14957.0312,13476.8718,-15402.3438,-13909.6680,0
5.796625,-15558.1055,13267.4803,8188.4766,195.3125,0
5.800531,1067.3828,-633.9258,-2979.4922,-6865.7227,0
5.804438,-15105.4688,1695.2150,-15652.3438,-14003.9062,0
5.808344,13815.4297,13027.7146,5563.9648,-2805.6641,0
5.812250,-940.4297,-3070.5860,9034.1797,-4872.5586,0
5.828000,-15035.1562,-15777.3438,-15472.6562,-13925.2930,0
5.831906,15566.4062,2062.5000,5939.4531,445.3125,0
5.835812,1056.1523,14998.0469,1031.7383,15128.9062,0
5.839719,-15160.1562,15909.6680,-15675.7812,-13917.4805,0
5.843625,14690.9180,-1313.4766,6188.9648,1945.3125,0
5.847531,-10953.6133,-3010.7422,9026.3672,-4864.7461,0
5.851437,-15128.9062,15972.1680,-15472.6562,-13636.2305,0
5.855344,15690.4297,-1188.4766,8188.9648,5070.8008,0
5.859250,7050.2930,988.2812,13026.8555,13136.2305,0
5.890000,-15082.0312,15901.8555,-15480.4688,-13792.4805,0
5.893906,13190.4297,-2437.9883,9564.4531,4070.8008,0
5.897813,1053.7109,8993.1641,13025.8789,13138.1836,0
5.901719,-15128.9062,15761.2305,-15660.1562,-13792.4805,0
5.905625,15441.4062,-2687.9883,6813.4766,4946.7773,0
5.909531,3053.2227,-1004.8828,15005.3711,-12864.7461,0
5.913438,-15144.5312,15823.7305,-15894.5312,-13854.9805,0
5.917344,14566.4062,-312.5000,3314.4531,3446.2891,0
5.921250,5060.0586,8990.7227,11043.9453,-12854.4922,0
5.937000,-15386.7188,15761.2305,-15417.9688,4783.9453,0
5.940906,7814.9414,-3438.4766,9313.9648,6933.0469,0
5.944812,5045.4102,4984.3750,-2972.1680,-11989.9648,0
5.948719,-15097.6562,15792.4805,-15472.6562,6108.4688,0
5.952625,13689.9414,-2187.9883,6938.4766,10865.7034,0
5.956531,-10951.1719,15004.3945,7020.0195,7823.9179,0
5.960437,-15199.2188,15979.9805,-15496.0938,4782.1324,0
5.964344,14441.4062,-1562.5000,9689.9414,1740.3468,0
5.968250,3055.6641,8999.5117,3036.1328,-1301.4387,0
5.984000,-15175.7812,-15988.2812,-15511.7188,-13565.9180,0
5.987906,14941.4062,62.0117,6438.9648,6822.2656,0
5.991812,7061.0352,14994.1406,15036.1328,13156.2500,0
5.995719,-14878.9062,15886.2305,-15316.4062,-13487.7930,0
5.999625,-10307.6172,-2438.4766,7813.4766,8696.7773,0
6.003531,13062.0117,14990.2344,-8975.5859,-8855.4688,0
6.007437,-15074.2188,15972.6562,-15457.0312,-13714.3555,0
6.011344,15815.9180,2062.9883,8813.9648,6322.2656,0
6.015250,-10942.3828,5003.9062,-10967.7734,3153.3203,0
6.031000,-14980.4688,-15996.5820,-15542.9688,-13542.4805,0
6.034906,-15058.5938,-562.9883,7188.9648,6945.8008,0
6.038813,11070.8008,10993.1641,-8974.1211,-10857.4219,0
6.042719,-14855.4688,15925.2930,-15542.9688,-13573.7305,0
6.046625,-13808.5938,-437.9883,8064.4531,5320.8008,0
6.050531,15069.3359,-4997.0703,13035.1562,-6863.2812,0
6.054438,-14871.0938,15979.9805,-15457.0312,-13800.2930,0
6.058344,-15808.5938,-562.5000,8689.4531,4446.7773,0
6.062250,-4920.4102,-14996.5820,-4964.3555,9151.3672,0
6.109000,-14769.5312,-15949.2188,-15628.9062,-13690.8126,0
6.112906,-12182.6172,437.5000,5813.9648,-14678.8504,0
6.116812,3062.5000,993.6523,-6971.1914,-14473.4623,0
6.120719,-15089.8438,15886.2305,-15519.5312,-14268.0742,0
6.124625,14065.9180,-437.9883,7563.9648,-14062.6860,0
6.125000,-15121.0938,15972.1680,-15746.0938,-14042.9688,0
6.128531,11060.5469,-3000.9766,15025.8789,-2189.0039,0
6.128906,13690.9180,-1062.9883,6939.4531,-930.1758,0
6.132437,-14980.4688,15909.6680,-15535.1562,-9929.1250,0
6.132812,1046.8750,-15009.7656,5022.4609,-10884.7656,0
6.136344,-14934.0820,-2187.9883,9439.9414,-13838.6562,0
6.136719,-15253.9062,15949.2188,-15613.2812,-14152.3438,0
6.140250,9054.1992,-2995.1172,9027.8320,-2877.9453,0
6.140625,13690.9180,2062.5000,5188.4766,-1680.6641,0
6.144531,1060.0586,-13002.4414,7028.8086,-6879.8828,0
6.148438,-14894.5312,15964.8438,-15566.4062,-13940.9180,0
6.152344,-13433.1055,312.9883,6438.9648,2696.2891,0
6.156250,-8918.9453,5003.9062,-6978.5156,9128.4180,0
6.171000,-14824.2188,15894.5312,-15675.7812,-14097.1680,0
6.174906,-14558.5938,1187.5000,5938.9648,570.8008,0
6.178812,11066.8945,6995.6055,-14970.2148,15144.0430,0
6.182719,-15074.2188,-15894.5312,-15675.7812,-13729.9805,0
6.186625,11065.9180,2937.5000,4188.9648,1945.8008,0
6.190531,1060.0586,-5001.9531,-12962.8906,15143.0664,0
6.194437,-15191.4062,15949.2188,-15433.5938,-13714.3555,0
6.198344,12689.9414,936.5234,5312.9883,3195.3125,0
6.202250,-10956.5430,-15020.0195,-10983.3984,-4879.8828,0
6.234000,-15292.9688,15831.5430,3196.1172,12625.5586,0
6.237906,11565.4297,-2312.9883,-1287.4407,6923.8804,0
6.241812,15056.1523,2995.1172,-5904.5565,280.4943,0
6.245719,-15019.5312,15862.7930,-10521.6723,-6362.8918,0
6.249625,15440.9180,-3438.4766,-15138.7881,-13006.2779,0
6.250000,-15097.6562,-3589.9297,-15582.0312,-13644.0430,0
6.253531,-4940.9180,-5016.1133,2629.5078,2030.7344,0
6.253906,12815.4297,-3022.9883,4563.4766,3695.3125,0
6.257437,-15058.5938,15745.6055,-9483.3945,10413.0742,0
6.257812,-10944.3359,14035.9336,-10975.0977,11126.4648,0
6.261344,15691.4062,-2063.4766,-15069.1406,-11463.8242,0
6.261719,-15058.5938,-3488.5066,-15503.9062,-13862.7930,0
6.265250,-8931.6406,-7004.3945,5575.0078,427.7344,0
6.265625,-15558.5938,-6356.6081,7813.4766,1945.3125,0
6.269531,-2939.4531,-740.5859,1013.1836,-14875.4883,0
6.273438,-15082.0312,1677.4023,-15699.2188,-14121.0938,0
6.277344,-15559.5703,12848.5743,6438.4766,-1180.6641,0
6.281250,-14956.5430,-3061.3867,-12983.8867,-8882.8125,0
6.312000,-15238.2812,15800.2930,-15667.9688,3335.3750,0
6.315906,11314.9414,-3438.4766,6313.4766,-332.8906,0
6.319812,15049.8047,986.8164,-6976.5625,-12736.0937,0
6.323719,-15066.4062,15901.8555,-15519.5312,-855.5938,0
6.327625,14065.4297,-1062.9883,7188.4766,-4936.7420,0
6.331531,-12938.4766,991.6992,-6979.9805,-5671.4407,0
6.335437,-14761.7188,15948.7305,-15613.2812,-6406.1394,0
6.339344,-12059.0820,-938.4766,4937.9883,-7140.8381,0
6.343250,-4942.3828,4989.2578,-14979.4922,-7875.5369,0
6.375000,-14894.5312,-15996.5820,-15410.1562,-13847.1680,0
6.378906,-15434.0820,-1062.9883,7938.4766,3320.8008,0
6.382812,-4929.6875,4993.1641,-8975.0977,11138.1836,0
6.386719,-14972.6562,15706.5430,-15636.7188,-13894.5312,0
6.390625,-15933.5938,-3437.9883,4688.4766,-179.6875,0
6.394531,13072.7539,-15011.7188,3017.0898,15138.6719,0
6.398438,-14753.9062,15776.8555,-15730.4688,-13776.8555,0
6.402344,-12807.6172,-812.5000,6189.4531,3446.2891,0
6.406000,-14894.5312,15651.8555,-15558.5938,-14121.0938,0
6.406250,-6918.4570,10991.6992,15033.2031,1129.3945,0
6.409906,-14058.1055,-7063.4766,3938.9648,-5306.1523,0
6.413813,15061.0352,-11000.9766,11021.4844,-8891.1133,0
6.417719,-15191.4062,15808.1055,-15925.7812,-14308.5938,0
6.421625,13815.9180,-4562.9883,6313.9648,-4556.1523,0
6.425531,-4932.6172,997.0703,-14976.0742,13111.8164,0
6.429438,-14964.8438,15901.8555,-15527.3438,-14144.5312,0
6.433344,13565.4297,-3062.9883,5813.9648,-2805.1758,0
6.437250,-934.5703,-12992.1875,7028.8086,1124.0234,0
6.453000,-14886.7188,-14515.0176,-15589.8438,-14034.6680,0
6.456906,15816.4062,-14892.7037,8314.4531,695.8008,0
6.460812,1061.5234,-15270.3897,13022.4609,9124.0234,0
6.464719,-15066.4062,-15648.0758,-15566.4062,-14011.7188,0
6.468625,-14433.5938,-13861.0352,5938.4766,-180.1758,0
6.472531,-14940.9180,-1244.7266,-12982.4219,-4874.5117,0
6.476437,-14894.5312,8409.4140,-15949.2188,-14113.2812,0
6.480344,-14559.0820,12528.0274,3438.9648,-2680.6641,0
6.484250,-8923.8281,-3670.8985,-12968.7500,9121.5820,0
6.500000,-14699.2188,15878.4180,-15480.4688,-13862.7930,0
6.503906,-14558.1055,-812.9883,6438.9648,1320.8008,0
6.507812,11082.5195,-1006.8359,11023.9258,-12855.9570,0
6.511719,-14582.0312,15847.1680,-15660.1562,-13714.3555,0
6.515625,-9182.1289,-3688.4766,6188.9648,3820.8008,0
6.519531,5080.0781,6990.7227,-12972.1680,-4868.6523,0
6.523438,-14785.1562,15847.1680,-15644.5312,-13988.2812,0
6.527344,-12933.1055,-1812.9883,5563.4766,-930.1758,0
6.531250,3070.8008,-9005.8594,-10976.5625,-6868.6523,0
6.546000,-14917.9688,15792.4805,-15652.3438,-14058.5938,0
6.549906,-13557.6172,-562.5000,5938.9648,-1054.6875,0
6.553812,-4922.3633,-3002.4414,13022.4609,-8881.8359,0
6.557719,-14878.9062,15886.7188,-15574.2188,-14159.6680,0
6.561625,-13057.6172,1312.9883,7563.9648,195.3125,0
6.565531,-10915.0391,12995.1172,-10973.6328,7130.3711,0
6.569437,-14675.7812,15941.4062,-15589.8438,-13894.0430,0
6.573344,-9182.1289,2562.9883,6313.9648,2070.8008,0
6.577250,11081.5430,995.1172,13030.2734,5126.9531,0
6.578000,-14683.5938,-15996.0938,-15464.8438,-14035.1562,0
6.581906,-9183.1055,2562.0117,8439.4531,-180.1758,0
6.585812,-2936.0352,14996.0938,3031.7383,3108.8867,0
6.589719,-14910.1562,-15917.9688,-15558.5938,-14199.2188,0
6.593625,-14558.1055,1187.5000,7689.4531,-1929.1992,0
6.597531,-4911.1328,15000.9766,9036.6211,1143.0664,0
6.601437,-14519.5312,15909.6680,-15621.0938,-13776.8555,0
6.605344,-6306.6406,-1687.9883,4939.4531,3945.8008,0
6.609250,-10915.5273,-5007.8125,-12966.3086,-865.7227,0
6.625000,-14792.9688,5686.2614,-15636.7188,-13987.7930,0
6.628906,-9057.1289,8338.5615,6814.4531,445.3125,0
6.632812,15079.5898,10990.8616,5026.3672,-10871.5820,0
6.636719,-14660.1562,13643.1617,-15566.4062,-14082.0312,0
6.640625,-11433.1055,13441.7188,7313.9648,-1054.6875,0
6.644531,-8925.2930,736.4844,9021.4844,11119.6289,0
6.648438,-14699.2188,3375.2148,-15605.4688,-14011.7188,0
6.652344,-12933.1055,13227.7930,7438.9648,-1181.1523,0
6.656250,3073.7305,220.3711,13027.3438,-2879.8828,0
6.703000,-14878.9062,15831.5430,-15511.7188,-13839.3555,0
6.706906,-12933.1055,-1312.9883,6438.4766,569.8242,0
6.710812,13076.6602,6990.2344,-10979.0039,-14875.0000,0
6.714719,-14746.0938,-15972.6562,-15605.4688,-14050.7812,0
6.718625,-14808.1055,1936.5234,6313.4766,-1430.1758,0
6.722531,5077.1484,-1012.2070,7021.4844,-2880.8594,0
6.726437,-14832.0312,-15996.5820,-15605.4688,-14082.0312,0
6.730344,-13183.1055,-1188.4766,3813.9648,-805.6641,0
6.734000,-14574.2188,-14118.3477,12454.5977,-13745.6055,0
6.734250,-6915.5273,-15002.4414,13045.4102,-8873.0469,0
6.737906,-10933.1055,-15202.2792,6479.5532,1319.8242,0
6.741812,-12925.7812,-15415.7812,-535.2512,3125.0000,0
6.745719,-14800.7812,-15629.2831,-7550.0556,-13957.0312,0
6.749625,-13808.5938,-15842.7851,-14564.8600,-55.1758,0
6.753531,15071.2891,793.6250,7861.3906,-12886.7188,0
6.757437,-14691.4062,-11508.6484,14582.4102,-14175.7812,0
6.761344,-11183.1055,13148.1836,-12522.6718,-3681.6406,0
6.765250,7066.4062,-449.9961,4676.2578,1100.0977,0
6.781000,-15003.9062,15620.6055,-15832.0312,-14253.9062,0
6.784906,15316.4062,-7064.4531,187.9883,-7932.1289,0
6.788813,3066.8945,12967.7734,9020.0195,9092.2852,0
6.792719,-14988.2812,15362.7930,-15832.0312,-14480.4688,0
6.796625,15940.9180,-6813.9648,1938.4766,-5931.1523,0
6.800531,-8937.9883,-5011.7188,3021.9727,13108.8867,0
6.804438,-14894.5312,15870.6055,-15707.0312,-14300.7812,0
6.808344,-14308.1055,-3187.9883,3687.9883,-8431.6406,0
6.812250,-10916.9922,8990.2344,-12993.6523,-10892.0898,0
6.828000,-14566.4062,15761.7188,-15753.9062,-14269.5312,0
6.831906,-7432.1289,1062.5000,8188.9648,-430.1758,0
6.835812,-2922.3633,-3010.2539,-4984.8633,-12898.9258,0
6.839719,-14800.7812,15910.1562,-15769.5312,-14457.0312,0
6.843625,-12433.1055,187.5000,6188.9648,-7306.6406,0
6.847531,-4923.3398,2997.5586,-6975.0977,-6899.9023,0
6.851437,-14933.5938,15847.1680,-15636.7188,-14246.0938,0
6.855344,-14808.5938,-1437.9883,6688.9648,-3806.1523,0
6.859250,-4937.0117,-15012.6953,7026.3672,13098.1445,0
6.875000,-14925.7812,15964.8438,-15605.4688,-14417.9688,0
6.878906,-10807.6172,3062.9883,7189.4531,-3306.1523,0
6.882812,-14925.2930,-985.8398,-10971.1914,-6901.8555,0
6.886719,-14839.8438,15988.2812,-15613.2812,-14433.5938,0
6.890625,-13183.1055,62.9883,9063.9648,-7181.6406,0
6.894531,-2930.1758,7004.3945,-10982.9102,-10903.8086,0
6.898438,-14847.6562,-15910.6445,-15550.7812,-14464.8438,0
6.902344,-13558.1055,-1062.5000,7938.4766,-7806.6406,0
6.906250,15075.6836,3011.7188,-4979.4922,3099.1211,0
6.921000,-14855.4688,-15941.4062,-15566.4062,-14363.2812,0
6.924906,-12308.1055,812.5000,5813.4766,-4431.6406,0
6.928812,-2915.5273,13001.9531,11020.5078,-2895.0195,0
6.932719,-14511.7188,-15871.0938,-15714.8438,-14082.0312,0
6.936625,-10558.1055,562.0117,6939.4531,-1306.1523,0
6.940531,7065.4297,15000.9766,5035.6445,-891.1133,0
6.944437,-14949.2188,15925.7812,-15355.4688,-14339.8438,0
6.948344,-11932.1289,1188.4766,10064.9414,-4680.1758,0
6.952250,3069.8242,7003.9062,3035.1562,9105.4688,0
6.968000,-14972.6562,15839.3555,-15503.9062,-14472.6562,0
6.971906,-12432.6172,-812.5000,7188.4766,-4180.6641,0
6.975812,5075.1953,-13001.4648,13013.6719,9109.3750,0
6.979719,-14660.1562,-15972.6562,-15589.8438,-14121.0938,0
6.983625,-11808.5938,812.0117,8938.9648,-931.1523,0
6.987531,1064.9414,6994.6289,-8968.2617,13100.5859,0
6.991437,-14855.4688,15933.1055,-15449.2188,-14378.9062,0
6.995344,-14183.5938,-437.9883,7688.9648,-8306.6406,0
6.999250,5056.1523,-1007.8125,-6966.7969,3090.8203,0
7.015000,-15214.8438,15769.0430,3958.5157,-14769.5312,0
7.018906,14440.9180,-5438.9648,3774.9219,-10932.1289,0
7.022813,-6944.3359,14999.0234,-12617.3438,-8912.1094,0
7.026719,-15183.5938,-15847.6562,2492.6954,-14472.6562,0
7.030625,14690.4297,3437.9883,-4910.9766,-7432.1289,0
7.034531,-953.6133,-12990.2344,-7901.5369,15082.5195,0
7.038438,-15191.4062,-15855.4688,-9001.5343,-14722.6562,0
7.042344,12565.4297,1937.5000,-10101.5317,-11683.1055,0
7.046250,-12937.9883,14996.5820,-11201.5292,7077.1484,0
7.062000,-14863.2812,15979.9805,-15636.7188,-5541.2070,0
7.065906,-15684.0820,-1062.9883,6564.4531,8623.5781,0
7.069812,3053.7109,11003.4180,9030.2734,-13943.5937,0
7.073719,-15136.7188,-15910.1562,-15433.5938,-8409.3438,0
7.077625,13314.9414,687.0117,10564.4531,-12928.3207,0
7.081531,1032.7148,12993.6523,1029.7852,-13142.9650,0
7.085437,-15277.3438,-15980.4688,-15425.7812,-13357.6093,0
7.089344,14190.4297,2562.5000,9814.4531,-13572.2536,0
7.093250,-948.2422,14988.7695,-12967.7734,-13786.8979,0
7.109000,-15191.4062,15902.3438,-15527.3438,-14652.3438,0
7.112906,13190.9180,62.5000,8188.9648,-11807.6172,0
7.116812,5056.6406,13001.4648,-2974.6094,13081.5430,0
7.120719,-15089.8438,15987.7930,-15511.7188,-14777.3438,0
7.124625,14315.4297,-937.9883,11189.9414,-11057.6172,0
7.128531,11048.8281,8998.5352,15027.8320,13075.1953,0
7.132437,-15214.8438,15909.6680,-15488.2812,-14847.6562,0
7.136344,13190.4297,-437.5000,8564.4531,-14308.5938,0
7.140250,9053.7109,-2991.2109,-10952.6367,5061.0352,0
7.156000,-15105.4688,15980.4688,-15355.4688,-14964.8438,0
7.159906,13565.9180,187.9883,10314.9414,13315.4297,0
7.163813,-4942.8711,7011.7188,-951.1719,-14944.8242,0
7.167719,-15128.9062,-15941.8945,-15339.8438,-15363.2812,0
7.171625,13690.9180,-1437.9883,8064.4531,6438.9648,0
7.175531,9062.9883,991.6992,11027.8320,5026.3672,0
7.179438,-15167.9688,15808.1055,-15738.2812,-15574.2188,0
7.183344,11440.4297,-2937.9883,7313.9648,8689.9414,0
7.187250,-939.4531,-14997.5586,-12975.5859,-2939.9414,0
7.218000,-14886.7188,-15980.4688,-15597.6562,-14871.0938,0
7.221906,-13683.1055,1312.5000,7315.4297,-14183.5938,0
7.225812,1060.5469,-5010.2539,3045.4102,-14945.8008,0
7.229719,-15300.7812,15815.9180,-15503.9062,-15308.5938,0
7.233625,11939.9414,-562.9883,7438.9648,11939.9414,0
7.237531,-2947.7539,-7000.9766,-8964.8438,11042.9688,0
7.241437,-15082.0312,-15980.9570,-15449.2188,-15222.6562,0
7.245344,13940.9180,-812.9883,6813.9648,10814.9414,0
7.249250,-14936.0352,4993.6523,-4962.8906,5044.9219,0
7.250000,-15003.9062,15808.1055,-15488.2812,-15386.7188,0
7.253906,15691.4062,-1062.5000,5438.4766,9939.4531,0
7.257812,-6934.5703,-2996.0938,13021.9727,-2970.7031,0
7.261719,-14925.7812,15925.2930,-15644.5312,-15660.1562,0
7.265625,-13683.5938,-2187.9883,4188.4766,5063.4766,0
7.269531,7071.2891,-2992.6758,15030.2734,1015.6250,0
7.273438,-14824.2188,-15965.3320,-15519.5312,-15722.6562,0
7.277344,-12933.1055,-1062.9883,6689.4531,5188.9648,0
7.281250,-8931.6406,-3002.9297,-10964.3555,-2969.7266,0
7.296000,-14886.7188,15917.4805,-15535.1562,-15480.4688,0
7.299906,15940.9180,-2188.4766,5438.4766,8314.4531,0
7.303812,3055.6641,-11005.8594,7024.4141,-4957.5195,0
7.307719,-14917.9688,15925.2930,-15472.6562,-15222.6562,0
7.311625,-15559.0820,-2438.4766,6313.4766,12939.9414,0
7.315531,5064.9414,-3010.2539,-10964.8438,-6942.8711,0
7.319437,-14964.8438,15745.6055,-15363.2812,-14808.5938,0
7.323344,14440.9180,-2187.9883,7938.9648,-14184.0820,0
7.327250,-8942.3828,12992.1875,9020.5078,-6934.5703,0
7.328000,-15238.2812,15894.0430,-15636.7188,-14917.9688,0
7.331906,13315.4297,-687.9883,8314.4531,-11932.1289,0
7.335812,-2947.2656,-3003.9062,13025.3906,9086.9141,0
7.339719,-15027.3438,15831.5430,-15667.9688,-14449.2188,0
7.343625,13064.4531,-3938.4766,7813.9648,-9558.5938,0
7.347531,-4956.0547,4986.8164,-976.5625,-14923.8281,0
7.351437,-15308.5938,15745.6055,-15550.7812,-14550.7812,0
7.355344,10189.9414,-1687.9883,8439.4531,-6431.1523,0
7.359250,-2960.9375,10981.4453,9022.9492,7089.3555,0
7.375000,-15378.9062,13425.6264,-15761.7188,-14738.2812,0
7.378906,12690.4297,14031.8221,4563.4766,-10932.6172,0
7.382812,13042.4805,14638.0179,-6969.7266,-10913.5742,0
7.386719,-15347.6562,15244.2136,-15355.4688,-14449.2188,0
7.390625,12690.4297,12682.6368,7813.9648,-7931.1523,0
7.394531,7040.5273,-811.9337,7032.2266,3107.4219,0
7.398438,-15128.9062,13443.7305,-15449.2188,-14355.4688,0
7.402344,-15184.0820,13107.7149,11190.4297,-6306.1523,0
7.406250,-8955.0781,-2009.0234,1035.6445,1095.7031,0
7.437000,-15347.6562,15761.2305,-15519.5312,-3434.5820,0
7.440906,10439.9414,-3063.9648,5688.4766,5066.0039,0
7.444812,3056.6406,14990.7227,-971.6797,-13106.8281,0
7.448719,-15042.9688,15917.4805,-15667.9688,-2936.7227,0
7.452625,12690.4297,-3188.4766,5313.9648,-8945.0876,0
7.456531,-12950.1953,-5008.7891,11028.8086,-9583.6138,0
7.460437,-15160.1562,15698.7305,-15449.2188,-10222.1401,0
7.464344,15565.9180,-5438.4766,8313.9648,-10860.6663,0
7.468250,-4943.3594,-15003.4180,9027.3438,-11499.1926,0
7.484000,-15082.0312,-4591.4809,-15519.5312,-14073.7305,0
7.487906,-15933.1055,-2009.1553,8564.4531,569.8242,0
7.491812,-6924.8047,573.1704,-6969.2383,-882.8125,0
7.495719,-15035.1562,3155.4960,-15691.4062,-14261.7188,0
7.499625,-15308.5938,5737.8217,5313.9648,-3180.6641,0
7.503531,-2936.5234,8320.1473,-6964.8438,3094.7266,0
7.507437,-15003.9062,10902.4730,-15277.3438,-14488.2812,0
7.511344,14565.4297,13484.7986,11064.4531,-8182.6172,0
7.515250,-8943.8477,14800.1680,3029.2969,-10917.4805,0
7.531000,-15183.5938,15831.5430,-15535.1562,-14691.4062,0
7.534906,12690.4297,-1313.4766,6438.4766,-10683.1055,0
7.538813,11047.8516,8981.9336,5008.3008,-6934.5703,0
7.542719,-15238.2812,15706.5430,-15761.7188,-14988.2812,0
7.546625,12065.9180,-3062.9883,6438.9648,-15934.0820,0
7.550531,-6933.5938,-6996.5820,-960.9375,-12935.0586,0
7.554438,-15042.9688,15933.1055,-15496.0938,-14855.4688,0
7.558344,-15933.5938,-1062.5000,7063.9648,-13433.1055,0
7.562250,9066.8945,5000.0000,13014.6484,-12920.8984,0
7.578000,-14894.5312,15995.6055,-15660.1562,-14566.4062,0
7.581906,14064.9414,-1187.9883,10064.4531,-10308.1055,0
7.585812,7039.0625,979.9805,-8968.2617,1060.0586,0
7.589719,-15300.7812,15550.2930,-15675.7812,-15089.8438,0
7.593625,9064.4531,-4938.4766,3438.9648,14440.9180,0
7.597531,15039.5508,-15016.1133,11029.7852,3060.0586,0
7.601437,-15355.4688,15706.5430,-15628.9062,-15019.5312,0
7.605344,10690.4297,-3563.4766,6189.4531,-14808.5938,0
7.609250,5052.7344,989.7461,7029.2969,-2936.5234,0
7.625000,-15136.7188,15854.9805,-15628.9062,-14902.3438,0
7.628906,14439.9414,-3188.4766,6938.4766,-12058.1055,0
7.632812,-2958.0078,-7005.3711,5008.7891,-4932.1289,0
7.636719,-15292.9688,15862.7930,-15816.4062,-15019.5312,0
7.640625,10940.4297,-4563.4766,3563.9648,15941.8945,0
7.644531,13055.6641,-4999.0234,15035.1562,3076.6602,0
7.648438,-15097.6562,-15949.7070,-15472.6562,-14707.0312,0
7.652344,14815.4297,-688.4766,7063.9648,-11933.1055,0
7.656250,15045.4102,-5009.7656,-10972.1680,-4916.9922,0
7.671000,-15199.2188,15847.1680,-15644.5312,-14613.2812,0
7.674906,12565.4297,-1437.9883,4813.9648,-10432.1289,0
7.678812,-8944.8242,-10998.0469,3025.8789,-6908.6914,0
7.682719,-14957.0312,15995.6055,-15589.8438,-14597.6562,0
7.686625,-15059.0820,-2938.4766,2437.5000,-10932.6172,0
7.690531,-12931.1523,12996.0938,-6975.0977,3103.0273,0
7.694437,-14902.3438,15972.1680,-15699.2188,-14464.8438,0
7.698344,14190.4297,-2062.9883,2562.9883,-11431.6406,0
7.702250,-6934.0820,6999.0234,7015.6250,3095.7031,0
7.703000,-15019.5312,15815.9180,-15667.9688,-14582.0312,0
7.706906,13315.4297,-4563.9648,5938.9648,-9681.6406,0
7.710812,11049.8047,8982.4219,7016.6016,1094.7266,0
7.714719,-15113.2812,15964.3555,-15808.5938,-14472.6562,0
7.718625,11689.9414,-562.9883,4688.9648,-7432.1289,0
7.722531,-12953.1250,-9004.8828,5026.3672,11084.9609,0
7.726437,-15285.1562,15690.9180,-15707.0312,-14753.9062,0
7.730344,13315.4297,-5313.9648,2813.4766,-13058.1055,0
7.734250,13046.3867,-5012.6953,5015.1367,15078.1250,0
7.750000,-15160.1562,5735.6493,-15777.3438,-14597.6562,0
7.753906,12940.9180,8401.4094,3687.9883,-8432.1289,0
7.757812,1057.6172,11067.1694,-8982.9102,-10912.1094,0
7.761719,-15207.0312,13732.9295,-15753.9062,-14699.2188,0
7.765625,11690.4297,13006.4649,3938.4766,-12682.6172,0
7.769531,11057.1289,245.6640,15024.9023,-6906.2500,0
7.773438,-15113.2812,15127.7148,-15574.2188,-14652.3438,0
7.777344,13815.9180,12848.3399,8438.9648,-10306.6406,0
7.781250,-2938.9648,-2843.0078,-4982.9102,9089.8438,0
7.812000,-15097.6562,15987.7930,-15535.1562,8761.0547,0
7.815906,11564.4531,-1313.4766,8313.4766,-13124.0078,0
7.819812,-14951.1719,-3008.3008,-12977.5391,-14805.1406,0
7.823719,-15128.9062,15878.4180,-15535.1562,-13680.0352,0
7.827625,14066.4062,-2812.9883,7063.9648,-9006.5822,0
7.831531,7068.8477,14994.6289,15024.4141,-9766.8784,0
7.835437,-14808.5938,15831.5430,-15636.7188,-10527.1746,0
7.839344,-11557.6172,-812.9883,8439.4531,-11287.4708,0
7.843250,1071.7773,6988.7695,9021.9727,-12047.7670,0
7.859000,-15175.7812,15737.7930,-15746.0938,-15113.2812,0
7.862906,9190.4297,-3562.9883,4939.4531,11440.9180,0
7.866812,-6919.9219,5000.4883,5037.5977,-4931.6406,0
7.870719,-15003.9062,-15902.3438,-15535.1562,-15378.9062,0
7.874625,13316.4062,1437.5000,7688.9648,7439.9414,0
7.878531,13057.1289,6993.6523,11016.6016,1038.0859,0
7.882437,-15121.0938,15941.4062,-15753.9062,-15355.4688,0
7.886344,15315.9180,1062.5000,4813.9648,10815.4297,0
7.890250,-6941.8945,-3002.9297,9026.8555,11044.4336,0
7.906000,-15144.5312,15776.8555,-15542.9688,-15535.1562,0
7.909906,12440.9180,-4063.4766,5188.4766,6939.4531,0
7.913813,9059.0820,-5000.0000,-14984.3750,15038.5742,0
7.917719,-15324.2188,-15933.5938,-15832.0312,-15503.9062,0
7.921625,12565.9180,812.5000,5313.4766,8189.4531,0
7.925531,7051.7578,-10995.6055,-12982.9102,-6973.6328,0
7.929438,-15160.1562,-15965.3320,-15660.1562,-15558.5938,0
7.933344,12064.9414,-1563.4766,5063.4766,9189.4531,0
7.937250,-12953.1250,-9008.3008,11017.5781,9032.2266,0
7.953000,-15316.4062,15894.0430,-15660.1562,-15496.0938,0
7.956906,10064.9414,-3188.4766,4812.9883,5563.4766,0
7.960812,-8958.4961,14992.6758,-4988.7695,-8979.4922,0
7.964719,-15292.9688,15831.5430,-15832.0312,-15808.5938,0
7.968625,13065.4297,-2688.4766,5689.4531,4064.4531,0
7.972531,13059.0820,15000.0000,1032.7148,1033.2031,0
7.976437,-15105.4688,15987.7930,-15605.4688,-15714.8438,0
7.980344,14316.4062,-1937.5000,4438.9648,4438.9648,0
7.984250,3059.5703,5003.4180,13028.3203,13032.7148,0
8.000000,-15066.4062,15901.8555,-15824.2188,-15535.1562,0
8.003906,15315.9180,-2937.9883,2063.4766,6439.4531,0
8.007812,1044.9219,6997.5586,-12974.6094,-6952.1484,0
8.011719,-15136.7188,15988.2812,-15558.5938,-15199.2188,0
8.015625,-12932.6172,1062.5000,6688.9648,14690.9180,0
8.019531,9068.8477,-1004.3945,3029.2969,1050.2930,0
8.023438,-15066.4062,15901.8555,-15589.8438,-15042.9688,0
8.027344,14690.9180,-312.9883,6063.9648,14189.9414,0
8.031250,-12937.9883,-3000.9766,7015.1367,9036.1328,1
8.046000,-15074.2188,15948.7305,-15730.4688,-15371.0938,1
8.049906,15816.8945,-687.9883,5689.4531,10690.4297,1
8.053812,15076.6602,-6993.6523,5040.0391,5059.5703,1
8.057719,-14847.6562,-15792.9688,-15441.4062,-15089.8438,1
8.061625,-14058.1055,2812.9883,9814.4531,15690.4297,1
8.065531,7059.0820,3001.9531,-8971.1914,-954.5898,1
8.069437,-15207.0312,15901.8555,-15503.9062,-15222.6562,1
8.073344,12314.9414,-2813.4766,5187.9883,11189.9414,1
8.077250,-2942.8711,-6998.5352,11020.5078,-12950.6836,1
8.078000,-14949.2188,15995.6055,-15496.0938,-15121.0938,1
8.081906,15315.9180,-1062.5000,9064.4531,-14808.1055,1
8.085812,7058.1055,5006.3477,11039.5508,3066.8945,1
8.089719,-15105.4688,-15949.7070,-15316.4062,-14988.2812,1
8.093625,12690.4297,-2062.9883,7813.9648,13815.4297,1
8.097531,-4948.2422,5001.4648,-4973.6328,-14945.3125,1
8.101437,-15050.7812,15886.2305,-15699.2188,-15113.2812,1
8.105344,-14558.5938,-2312.9883,7063.9648,14315.4297,1
8.109250,1055.6641,-3002.4414,13020.5078,-2950.1953,1
8.125000,-15066.4062,-9657.7268,-15574.2188,-15144.5312,1
8.128906,-15809.0820,-11308.3432,9063.9648,14190.4297,1
8.132812,-12943.3594,-12958.9596,-10973.6328,-8952.6367,1
8.136719,-15011.7188,-14609.5760,-15527.3438,-15105.4688,1
8.140625,-15184.0820,-13226.7969,8063.9648,15440.9180,1
8.144531,-4936.5234,1900.7617,11028.8086,3063.4766,1
8.148438,-14894.5312,1638.5743,-15488.2812,-15097.6562,1
8.152344,-13433.1055,-13601.0352,7688.9648,13816.8945,1
8.156250,3067.3828,-1798.3203,-14977.0508,11064.4531,1
8.187000,-14777.3438,-15746.0938,-15480.4688,10511.0703,1
8.190906,-14059.0820,937.5000,9439.9414,-4124.0274,1
8.194812,15056.6406,11014.1602,9037.1094,-12442.7969,1
8.198719,-15113.2812,-15777.3438,-15550.7812,10906.7695,1
8.202625,15315.9180,3312.9883,8564.4531,-12971.4644,1
8.206531,13060.0586,13009.2773,7026.8555,-13223.5348,1
8.210437,-15121.0938,-15863.2812,-15496.0938,-13475.6052,1
8.214344,13065.9180,3687.9883,9189.4531,-13727.6756,1
8.218250,9058.1055,15011.2305,1031.2500,-13979.7459,1
8.234000,-14917.9688,-157.2035,-15425.7812,-14996.0938,1
8.237906,-14808.5938,-3919.2159,7814.4531,14440.4297,1
8.241812,1069.3359,-7681.2283,3035.6445,-8946.2891,1
8.245719,-14871.0938,-11443.2407,-15402.3438,-15042.9688,1
8.249625,14690.9180,-15205.2531,10064.4531,14564.9414,1
8.253531,5062.0117,4439.0078,11026.8555,-4950.6836,1
8.257437,-14925.7812,-12907.8359,-15496.0938,-15003.9062,1
8.261344,-14183.1055,-15502.6250,9938.9648,12439.9414,1
8.265250,3067.8711,3987.3164,-977.0508,13060.5469,1
8.281000,-15003.9062,-15707.0312,-15488.2812,-15097.6562,1
8.284906,15941.4062,3688.4766,9939.4531,10064.9414,1
8.288813,11061.0352,3015.1367,7023.9258,-14957.5195,1
8.292719,-14933.5938,-15683.5938,-15527.3438,-15308.5938,1
8.296625,-14058.5938,6688.9648,7438.9648,10814.9414,1
8.300531,3058.1055,5024.9023,-12974.1211,5038.5742,1
8.304438,-15027.3438,-15613.2812,-15683.5938,-15371.0938,1
8.308344,14190.4297,5563.9648,6313.9648,11315.4297,1
8.312250,-2938.4766,5021.4844,-971.6797,1042.9688,1
8.328000,-14949.2188,-15707.0312,-15660.1562,-15269.5312,1
8.331906,-14183.1055,7813.9648,7939.4531,15565.9180,1
8.335812,-8920.8984,1012.2070,-6965.3320,-953.6133,1
8.339719,-14972.6562,-15824.2188,-15488.2812,-15441.4062,1
8.343625,13815.9180,3188.4766,7188.9648,7689.4531,1
8.347531,-2938.9648,9021.9727,-8974.1211,-10965.3320,1
8.351437,-15003.9062,-15589.8438,-15496.0938,-15527.3438,1
8.355344,-14933.5938,4438.4766,8313.9648,8563.9648,1
8.359250,-10941.4062,5014.6484,-12979.4922,-2978.0273,1
8.375000,-15167.9688,-15871.0938,-15707.0312,-15777.3438,1
8.378906,15316.4062,3562.9883,6688.9648,6189.9414,1
8.382812,-6928.2227,-2988.2812,-4973.1445,3041.0156,1
8.386719,-14925.7812,-15808.5938,-15574.2188,-15355.4688,1
8.390625,13940.9180,2187.5000,6063.4766,9314.4531,1
8.394531,-4928.2227,-6997.5586,15021.4844,-956.5430,1
8.398438,-14761.7188,-15910.1562,-15675.7812,-15230.4688,1
8.402344,-12309.0820,3062.9883,6313.9648,15315.9180,1
8.406250,-8948.7305,9008.7891,15019.5312,-14960.9375,1
8.421000,-14996.0938,-15769.5312,-15527.3438,-15355.4688,1
8.424906,-15308.1055,4813.4766,9313.9648,13190.9180,1
8.428812,-8917.4805,-2982.9102,-12971.6797,-8939.4531,1
8.432719,-14933.5938,-15808.5938,-15550.7812,-15050.7812,1
8.436625,-14432.6172,2187.5000,5188.4766,15190.9180,1
8.440531,3069.8242,3005.8594,-2974.6094,11059.0820,1
8.444437,-15082.0312,-15863.2812,-15644.5312,-15082.0312,1
8.448344,15316.4062,2687.9883,5813.9648,13065.4297,1
8.452250,15071.2891,-14997.0703,5028.8086,-2940.4297,1
8.468000,-14964.8438,-15965.3320,-15441.4062,-15160.1562,1
8.471906,15566.4062,-562.9883,8438.4766,10314.9414,1
8.475812,1059.0820,-15000.4883,-977.5391,-12953.1250,1
8.479719,-14964.8438,-15894.5312,-15574.2188,-15253.9062,1
8.483625,-14808.1055,1562.5000,5688.4766,11314.4531,1
8.487531,1066.8945,11003.9062,-8975.0977,-957.5195,1
8.491437,-15003.9062,15894.0430,-15675.7812,-15308.5938,1
8.495344,-15559.0820,-2062.9883,3688.4766,7563.4766,1
8.499250,-8941.8945,-9001.9531,11025.8789,9022.9492,1
8.515000,-15082.0312,-15980.4688,-15496.0938,5246.8556,1
8.518906,13940.9180,1062.5000,9689.4531,-7753.7696,1
8.522813,3050.7812,992.6758,-2968.7500,-14931.1719,1
8.526719,-15253.9062,15871.0938,-15574.2188,3844.7657,1
8.530625,13189.9414,437.0117,3812.9883,-1286.7188,1
8.534531,-6957.5195,10989.2578,-4970.7031,-5828.2171,0
8.538438,-15253.9062,-15636.7188,-15535.1562,-9227.6943,0
8.542344,11690.4297,5687.5000,8064.4531,-12627.1714,0
8.546250,7035.1562,-15001.9531,-2966.7969,-14929.3631,0
8.562000,-15582.0312,-15910.1562,-15683.5938,7004.7305,0
8.565906,2562.9883,4313.9648,7316.8945,-8807.1797,0
8.569812,5034.6680,5037.1094,3071.2891,12993.6016,0
8.573719,15729.9805,-15683.5938,-15488.2812,9215.7304,0
8.577625,-11941.4062,15441.4062,5316.8945,-14803.3303,0
8.581531,2911.1328,-14992.1875,7097.6562,-11289.8439,0
8.585437,13995.1172,15722.6562,-15058.5938,-7776.3576,0
8.589344,-6568.3594,8068.8477,11817.8711,-4262.8712,0
8.593250,-5070.3125,-12915.5273,15112.7930,-749.3849,0
8.609000,14284.1797,-14933.1055,-15582.5195,13416.9922,0
8.612906,-4570.8008,3447.7539,-1057.6172,10423.8281,0
8.616812,-5133.7891,15092.2852,13123.0469,-9214.3555,0
8.620719,13948.7305,-13463.8672,-13120.1172,12635.7422,0
8.624625,-11437.9883,14965.8203,10714.3555,-4444.3359,0
8.628531,-6966.3086,9604.9805,-14416.5039,4922.3633,0
8.632437,-14527.3438,-4657.2266,-5345.2148,15815.9180,0
8.636344,14814.9414,11745.1172,-14009.2773,-9065.4297,0
8.640250,9096.1914,-18.5547,11984.8633,-14980.4688,0
8.656000,-14253.9062,-492.6758,-484.8633,-15519.5312,0
8.659906,-7181.1523,-6376.9531,-7001.9531,3938.9648,0
8.663813,15137.2070,-8025.8789,-6025.8789,-10942.3828,0
8.667719,-13636.2305,-406.7383,-406.7383,-15050.7812,0
8.671625,2571.2891,-6501.9531,-6626.9531,11315.9180,0
8.675531,3144.5312,-10026.3672,-8026.8555,9055.1758,0
8.679438,-13472.1680,-406.7383,-406.7383,-14980.4688,0
8.683344,5190.9180,-6501.9531,-6752.9297,12561.0352,0
8.687250,-3000.0000,-8025.8789,-10052.2461,4934.0820,0
8.703000,15659.6680,-406.7383,-867.6758,14542.4805,0
8.706906,-70.8008,-6501.9531,14995.1172,14550.2930,0
8.710812,880.3711,-10026.3672,9924.3164,-5179.1992,0
8.714719,15808.1055,-406.7383,-1375.4883,14854.9805,0
8.718625,-9314.9414,-6501.9531,9369.6289,6930.6641,0
8.722531,6951.1719,-8025.8789,-8073.2422,-11114.2578,0
8.726437,14987.7930,-406.7383,-1242.6758,14042.4805,0
8.730344,-7937.5000,-6501.9531,8368.6523,7932.6172,0
8.734250,6911.1328,-8025.8789,15887.6953,-9156.2500,0
8.750000,13729.9805,-406.7383,-2586.9141,12870.1172,0
8.753906,8554.6875,-6501.9531,-15263.6719,-5573.7305,0
8.757812,2859.8633,-8025.8789,15786.6211,-3188.9648,0
8.761719,13549.8047,-406.7383,-3548.3398,12776.3672,0
8.765625,-12942.8711,-6501.9531,-4761.7188,4552.7344,0
8.769531,14878.4180,-8025.8789,-4088.8672,-5179.1992,0
8.773438,13534.6680,-406.7383,-1367.6758,12612.3047,0
8.777344,3804.1992,-6501.9531,11244.6289,-12324.7070,0
8.781250,2874.0234,-8025.8789,-6081.0547,-5178.7109,0
8.796000,13299.8047,-406.7383,9874.1600,-4008.1248,0
8.799906,-13571.7773,-6501.9531,-9912.6364,-10574.3945,0
8.803812,-9249.0234,-8025.8789,-3330.3322,7816.6599,0
8.807719,11588.8672,-406.7383,9765.4100,1030.2150,0
8.811625,3297.8516,-6501.9531,13587.3633,-7940.5272,0
8.815531,-11233.8867,-8025.8789,10725.8708,-4874.8373,0
8.819437,12284.1797,-406.7383,6929.8232,358.6852,0
8.823344,14048.3398,-6501.9531,3133.7755,5592.2076,0
8.827250,-9204.1016,-8025.8789,-662.2721,10825.7301,0
8.828000,12682.6172,-406.7383,-1391.1133,11830.5664,0
8.831906,2425.2930,-6501.9531,10244.1406,-9077.6367,0
8.835812,-15225.5859,-10025.8789,-6088.3789,729.4922,0
8.839719,12510.7422,-406.7383,-1453.6133,11846.6797,0
8.843625,-13578.6133,-6501.9531,7868.1641,7668.4570,0
8.847531,-9308.5938,-10025.8789,5826.6602,8643.0664,0
8.851437,11705.5664,-406.7383,-4243.6523,11072.7539,0
8.855344,-3330.5664,-6501.9531,9098.1445,-14583.0078,0
8.859250,-3243.1641,-8025.8789,3549.8047,-11276.8555,0
8.890000,11893.0664,-406.7383,-5763.3203,1447.2460,0
8.893906,-8080.5664,-6501.9531,12244.0626,5600.7032,0
8.897813,768.5547,-8025.8789,-1342.4805,11737.7735,0
8.901719,12409.1797,-406.7383,9225.0391,9525.2344,0
8.905625,11800.2930,-6501.9531,8376.3672,3765.2929,0
8.909531,-1198.7305,-8025.8789,6383.7250,5051.0657,0
8.913438,13081.0547,-406.7383,4800.2225,7751.4835,0
8.917344,13924.8047,-6501.9531,3216.7200,10451.9012,0
8.921250,812.5000,-8026.3672,1633.2174,11376.0232,0
8.937000,13471.6797,-414.5508,-4751.4648,-4758.3242,0
8.940906,-8449.2188,-6626.9531,14231.9336,3937.2852,0
8.944812,-3183.5938,-10025.8789,-14260.7422,12236.9609,0
8.948719,13925.2930,-406.7383,-4446.7773,-1719.9062,0
8.952625,181.1523,-6626.9531,12355.4688,11014.4062,0
8.956531,12912.1094,-10026.3672,7746.5820,11393.3528,0
8.960437,14565.9180,-414.5508,-4173.3398,11772.2995,0
8.964344,5808.5938,-6501.9531,3853.5156,12151.2461,0
8.968250,15017.5781,-8025.8789,-4246.5820,12530.1927,0
8.984000,14581.5430,-406.7383,-4321.7773,14058.1055,0
8.987906,9310.0586,-6501.9531,-6142.5781,1307.6172,0
8.991812,12948.2422,-8025.8789,-8270.9961,891.6016,0
8.995719,15097.1680,-406.7383,-4274.9023,14472.1680,0
8.999625,-6439.9414,-6626.9531,-6643.5547,-15942.8711,0
9.003531,10968.2617,-10026.3672,-6283.2031,-13064.9414,0
9.007437,15175.2930,-414.5508,-4470.2148,14534.6680,0
9.011344,-6437.0117,-6501.9531,-10893.5547,-14812.9883,0
9.015250,10972.6562,-8025.8789,-12305.1758,-15050.2930,0
9.046000,-15699.2188,-406.7383,4057.5585,-13206.5430,0
9.049906,11936.0352,-6501.9531,2312.5586,-2861.6212,0
9.053812,-14947.2656,-8025.8789,-5553.9062,13065.5467,0
9.057719,-14417.9688,-406.7383,-5011.2696,8557.2657,0
9.061625,4192.3828,-6501.9531,-1082.3047,13752.3632,0
9.065531,-10897.9492,-8025.8789,-1621.6837,8633.9315,0
9.069437,-15199.2188,-406.7383,-3072.1164,1052.3721,0
9.073344,-9931.1523,-6501.9531,-4522.5491,-6529.1874,0
9.077250,1079.1016,-8028.3203,-5972.9818,-14110.7468,0
9.078000,-14621.0938,-352.0508,-6251.4648,-15566.4062,0
9.081906,-2803.7109,-10881.3477,6101.0742,13941.4062,0
9.085812,7115.2344,5853.5156,5567.3828,-962.4023,0
9.089719,-14214.3555,-3524.9023,-6587.4023,-15277.3438,0
9.093625,2570.8008,-14650.3906,11354.9805,-12558.5938,0
9.097531,-12917.9688,-2518.0664,11664.0625,13013.6719,0
9.101437,-14034.6680,-9174.3164,-5884.2773,-15050.2930,0
9.105344,-12176.2695,-12789.5508,-14518.0664,1444.3359,0
9.109250,3142.0898,5291.0156,15646.9727,-8904.7852,0
9.140000,-14394.0430,-12433.1055,-6204.5898,-15300.7812,0
9.143906,8073.2422,-7425.2930,12232.4219,-9555.1758,0
9.147813,7166.0156,7112.3047,-8306.1523,5097.1680,0
9.151719,-13081.5430,-15668.4570,-5462.4023,-14503.9062,0
9.155625,2197.7539,9305.6641,5730.9570,14067.8711,0
9.159531,13186.0352,-9175.7812,-6340.8203,-6898.4375,0
9.163438,-14535.1562,12064.9414,-5970.2148,15957.0312,0
9.167344,-2420.8984,11916.0156,-14269.0430,4074.7070,0
9.171000,-13542.4805,9212.8906,-5376.4648,-14957.0312,0
9.171250,-10769.5312,-11312.0117,15673.8281,13165.5273,0
9.174906,12197.2656,1154.2969,7853.5156,-9557.6172,0
9.178812,15203.1250,-3505.3711,5677.2461,7116.6992,0
9.182719,-11878.4180,7610.3516,-5525.3906,-13300.7812,0
9.186625,-11177.7344,-9977.5391,-9649.9023,-4683.5938,0
9.190531,7235.3516,-15597.6562,-14330.5664,11156.7383,0
9.194437,-12636.2305,4579.1016,-5259.7656,-14011.7188,0
9.198344,15954.5898,-13230.4688,-400.8789,-8051.2695,0
9.202250,3245.6055,-7744.1406,7586.9141,11172.3633,0
9.203000,-12558.1055,4555.1758,-5704.5898,-13862.7930,0
9.206906,-10550.2930,-10615.7227,4473.1445,569.8242,0
9.210812,11206.0547,14125.9766,-4378.4180,9114.7461,0
9.214719,-12222.1680,2781.2500,-5501.9531,-13722.6562,0
9.218625,15949.7070,-9622.5586,-3904.7852,-8931.1523,0
9.222531,-2779.7852,12066.4062,9565.4297,-14869.6289,0
9.226437,-13808.1055,0.0000,-5142.0898,-15128.9062,0
9.230344,-12168.9453,13879.8828,6722.1680,-3674.3164,0
9.234250,13160.1562,-11993.6523,-14426.2695,3099.6094,0
9.250000,-14089.3555,-5802.5438,-5939.4531,-15159.6680,0
9.253906,-5928.2227,-4267.0506,-6651.3672,1566.4062,0
9.257812,-10850.5859,-2731.5575,3573.2422,-12939.4531,0
9.261719,-12917.4805,-1196.0643,-6345.7031,-14355.4688,0
9.265625,13194.8242,738.7500,-5530.7617,-9811.0352,0
9.269531,-12879.3945,5065.0000,-14448.2422,-4977.5391,0
9.273438,-13347.1680,8402.5000,-5392.5781,-15050.7812,0
9.277344,5321.2891,13.1250,-5026.3672,8688.9648,0
9.281250,-12890.1367,0.1562,-2416.5039,-10984.3750,0
9.312000,-13980.4688,0.0000,-6431.6406,5221.0547,0
9.315906,-1177.7344,125.0000,-2774.4141,6732.5351,0
9.319812,-800.7812,0.0000,-2403.8086,-12488.4844,0
9.323719,-12901.8555,0.0000,-6548.8281,12648.1445,0
9.327625,7320.8008,0.0000,-12400.8789,10741.3782,0
9.331531,3167.9688,2.4414,-6352.5391,7431.9631,0
9.335437,-13198.7305,39.0625,-6111.3281,4122.5480,0
9.339344,11948.2422,0.0000,-8523.9258,813.1329,0
9.343250,-10842.2852,-13990.2344,3625.4883,-2496.2821,0
9.359000,-14175.2930,140.6250,-6970.7031,-15839.8438,0
9.362906,13822.7539,5125.0000,-270.9961,-13809.0820,0
9.366812,-4824.7070,12.6953,13635.7422,11067.8711,0
9.370719,-13261.2305,679.6875,-6541.0156,-15003.9062,0
9.374625,11198.7305,1125.0000,-4896.9727,15067.8711,0
9.378531,1191.8945,11.7188,15660.1562,15083.4961,0
9.382437,-12902.3438,218.7500,-5736.3281,-14809.0820,0
9.386344,-5925.2930,0.0000,-3519.0430,-681.6406,0
9.390250,-14709.9609,4011.2305,1701.6602,-14790.5273,0
9.406000,-13183.1055,0.0000,-5618.6523,-14097.6562,0
9.409906,7199.2188,5752.4414,4103.5156,-7429.6875,0
9.413813,-14858.3984,-14000.0000,-8352.5391,-2908.6914,0
9.417719,-12503.4180,851.5625,-5775.3906,-13433.1055,0
9.421625,-9555.1758,-14375.0000,-1771.4844,7190.9180,0
9.425531,-4798.3398,12057.6172,-12289.0625,-4863.2812,0
9.429438,-12300.2930,1094.2383,-6103.5156,-13081.5430,0
9.433344,-4427.7344,1262.2070,-4394.0430,15569.8242,0
9.437250,7134.2773,4044.4336,-2305.6641,7102.5391,0
9.453000,-13065.9180,516.6016,-5048.3398,-13675.2930,0
9.456906,-4549.8047,3136.7188,-15770.5078,11696.2891,0
9.460812,-6832.0312,49.8047,15695.3125,-6888.6719,0
9.464719,-13112.7930,2641.1133,-4767.0898,-13847.6562,0
9.468625,10825.6836,-10737.7930,10727.5391,-678.2227,0
9.472531,13221.6797,204.5898,-4316.4062,11154.2969,0
9.476437,-14378.4180,2515.6250,-5509.2773,-15058.5938,0
9.480344,5829.5898,-8739.7461,15855.4688,-6549.3164,0
9.484250,-12727.5391,-15743.6523,3646.9727,9218.7500,0
9.500000,-12291.9922,3633.3008,-5353.0273,-12995.6055,0
9.503906,823.7305,-12989.7461,10600.5859,-10178.7109,0
9.507812,-12798.3398,4210.4492,1594.2383,-846.1914,0
9.511719,-11237.7930,4180.1758,-5806.6406,-12253.4180,0
9.515625,-9180.1758,-15743.6523,-1148.4375,10692.3828,0
9.519531,-2812.0117,-7845.7031,-14454.5898,3138.6719,0
9.523438,-11917.4805,3969.2383,-6931.1523,-12394.0430,0
9.527344,-10924.3164,-6609.3750,14352.5391,-15926.2695,0
9.531250,11196.2891,-3782.2266,-14420.4102,11156.2500,0
9.546000,-12800.2930,2539.5508,-5931.1523,-13511.2305,0
9.549906,15692.3828,-2490.2344,10475.0977,6690.4297,0
9.553812,-6828.1250,-3829.1016,11588.8672,13122.0703,0
9.557719,-11487.7930,4141.1133,-5899.9023,-12175.2930,0
9.561625,-9175.2930,-1859.8633,2101.0742,14947.2656,0
9.565531,11125.4883,8225.0977,-2495.1172,9088.8672,0
9.569437,-14378.4180,4344.2383,-7353.0273,-14745.6055,0
9.573344,-4423.8281,-1483.8867,12099.6094,-6674.3164,0
9.577250,-4831.5430,262.6953,9523.9258,9145.5078,0
9.593000,-13285.1562,4922.8516,4397.1876,-13660.1562,0
9.596906,-2678.2227,4262.6953,-7735.5665,-4804.1992,0
9.600812,13222.1680,-7658.6914,-7723.9062,-6796.3867,0
9.604719,-13902.3438,5313.4766,10480.8790,-14089.8438,0
9.608625,-5428.2227,9392.0898,-1492.1094,-2801.7578,0
9.612531,-12919.4336,241.6992,-4928.7923,9081.0547,0
9.616437,-15011.7188,4352.5391,-5541.5659,-14831.5430,0
9.620344,-1176.7578,-8851.5625,-6154.3395,5949.2188,0
9.624250,1162.1094,-9690.4297,-6767.1131,-14821.2891,0
9.625000,-13808.5938,-9040.6901,-6884.7656,-13534.6680,0
9.628906,-805.1758,-5656.6298,8097.1680,2571.2891,0
9.632812,13126.9531,-2272.5694,-14409.6680,13151.3672,0
9.636719,-15910.1562,1111.4909,-7447.7539,-15613.2812,0
9.640625,12951.1719,1164.1797,-5657.2266,15200.1953,0
9.644531,11109.3750,-11598.8477,-432.6172,-6891.1133,0
9.648438,-14464.3555,-742.9102,-5955.5664,-14456.5430,0
9.652344,2317.8711,4873.8672,-1655.7617,1693.8477,0
9.656250,-10835.9375,7537.1680,1608.8867,13179.1992,0
9.703000,-13464.8438,4477.0508,-6470.7031,-5036.7287,0
9.706906,-5556.6406,-11862.3047,4471.1914,-6141.0085,0
9.710812,11128.9062,14327.1484,-10363.7695,-7245.2883,0
9.714719,-13737.7930,4492.6758,-6080.5664,-8349.5680,0
9.718625,1820.8008,-6982.9102,-1409.1797,-9453.8478,0
9.722531,-898.4375,10248.5352,7618.6523,-10558.1276,0
9.726437,-14542.4805,3821.2891,-5681.6406,-11662.4073,0
9.730344,4574.7070,9645.9961,6844.2383,-12766.6871,0
9.734000,-13776.8555,3797.8516,-5986.3281,-13800.2930,0
9.734250,-10821.7773,2287.1094,-375.9766,-13800.3555,0
9.737906,-13550.7812,7893.0664,-7902.8320,-13801.2695,0
9.741812,7198.2422,-9720.2148,9591.7969,-12802.2461,0
9.745719,-13894.0430,4211.9141,-6150.3906,-13886.2305,0
9.749625,-2798.3398,4519.0430,-11027.8320,-5547.8516,0
9.753531,-10911.6211,243.1641,-2425.2930,-2895.0195,0
9.757437,-12659.1797,3946.2891,-6298.8281,-12854.4922,0
9.761344,2201.6602,-14857.4219,-1773.9258,702.1484,0
9.765250,-4806.1523,-3707.0312,-12401.3672,9187.0117,0
9.781000,-13120.6055,5555.6641,-6642.5781,-13253.4180,0
9.784906,-9801.7578,-9234.8633,-6648.4375,-10552.2461,0
9.788813,9173.8281,-3717.2852,-4415.5273,11169.9219,0
9.792719,-12644.0430,5672.8516,-6798.8281,-12565.9180,0
9.796625,-6550.2930,-7352.0508,-10399.4141,-3924.8047,0
9.800531,9218.2617,-7630.3711,1593.2617,5208.4961,0
9.804438,-11854.9805,5383.7891,-7861.3281,-12151.8555,0
9.808344,14699.2188,-15980.9570,-14772.4609,15450.1953,0
9.812250,-8695.3125,-7647.9492,5546.8750,13305.1758,0
9.828000,-12394.0430,5407.2266,-7181.1523,-12472.1680,0
9.831906,11575.6836,-11223.6328,1101.0742,8700.1953,0
9.835812,3240.2344,-13621.0938,3550.7812,5248.0469,0
9.839719,-12808.1055,4063.4766,-7455.0781,-12769.0430,0
9.843625,9828.1250,-12348.6328,-7524.9023,8953.6133,0
9.847531,-4822.2656,-1614.2578,3567.8711,-4814.9414,0
9.851437,-14464.3555,4540.0391,-8189.4531,-14440.9180,0
9.855344,-7921.3867,-11974.6094,-15272.4609,-7796.3867,0
9.859250,-4771.4844,-9548.3398,7558.1055,-10783.2031,0
9.875000,-12698.7305,5938.4766,-7603.5156,-12940.9180,0
9.878906,4947.7539,5396.4844,-13775.3906,4446.7773,0
9.882812,5217.7734,-13583.0078,15557.6172,-4785.6445,0
9.886719,-13503.4180,5540.5273,-7439.4531,-13480.4688,0
9.890625,2074.7070,4275.8789,12849.6094,-3052.2461,0
