timestamp,TP9,AF7,AF8,TP10,label
0.000000,-12933.1055,15792.4805,15988.2812,-13440.9180,0
0.000000,-12933.1055,15792.4805,15988.2812,-13440.9180,0
0.000000,-12933.1055,15792.4805,15988.2812,-13440.9180,0
0.000000,-12933.1055,15792.4805,15988.2812,-13440.9180,0
0.000000,-12933.1055,15792.4805,15988.2812,-13440.9180,0
0.000000,-12933.1055,15792.4805,15988.2812,-13440.9180,0
0.000000,-12933.1055,15792.4805,15988.2812,-13440.9180,0
0.000000,-12933.1055,15792.4805,15988.2812,-13440.9180,0
0.000000,-12933.1055,15792.4805,15988.2812,-13440.9180,0
0.000000,-12933.1055,15792.4805,15988.2812,-13440.9180,0
0.000000,-12933.1055,15792.4805,15988.2812,-13440.9180,0
0.000000,-12933.1055,15792.4805,15988.2812,-13440.9180,0
0.000000,-12933.1055,15792.4805,15988.2812,-13440.9180,0
0.000000,-12933.1055,15792.4805,15988.2812,-13440.9180,0
0.000000,-12933.1055,15792.4805,15988.2812,-13440.9180,0
0.000000,-12933.1055,15792.4805,15988.2812,-13440.9180,0
0.000000,-12933.1055,15792.4805,15988.2812,-13440.9180,0
0.000000,-12933.1055,15792.4805,15988.2812,-13440.9180,0
0.000000,-12933.1055,15792.4805,15988.2812,-13440.9180,0
0.000000,-12933.1055,15792.4805,15988.2812,-13440.9180,0
0.000000,-12933.1055,15792.4805,15988.2812,-13440.9180,0
0.000000,-12933.1055,15792.4805,15988.2812,-13440.9180,0
0.000000,-12933.1055,15792.4805,15988.2812,-13440.9180,0
0.000000,-12933.1055,15792.4805,15988.2812,-13440.9180,0
0.000000,-12933.1055,15792.4805,15988.2812,-13440.9180,0
0.000000,-12933.1055,15792.4805,15988.2812,-13440.9180,0
0.003906,-11675.2930,-5563.9648,1686.5234,12573.2422,0
0.003906,-11675.2930,-5563.9648,1686.5234,12573.2422,0
0.003906,-11675.2930,-5563.9648,1686.5234,12573.2422,0
0.003906,-11675.2930,-5563.9648,1686.5234,12573.2422,0
0.003906,-11675.2930,-5563.9648,1686.5234,12573.2422,0
0.003906,-11675.2930,-5563.9648,1686.5234,12573.2422,0
0.003906,-11675.2930,-5563.9648,1686.5234,12573.2422,0
0.003906,-11675.2930,-5563.9648,1686.5234,12573.2422,0
0.003906,-11675.2930,-5563.9648,1686.5234,12573.2422,0
0.003906,-11675.2930,-5563.9648,1686.5234,12573.2422,0
0.003906,-11675.2930,-5563.9648,1686.5234,12573.2422,0
0.003906,-11675.2930,-5563.9648,1686.5234,12573.2422,0
0.003906,-11675.2930,-5563.9648,1686.5234,12573.2422,0
0.003906,-11675.2930,-5563.9648,1686.5234,12573.2422,0
0.003906,-11675.2930,-5563.9648,1686.5234,12573.2422,0
0.003906,-11675.2930,-5563.9648,1686.5234,12573.2422,0
0.003906,-11675.2930,-5563.9648,1686.5234,12573.2422,0
0.003906,-11675.2930,-5563.9648,1686.5234,12573.2422,0
0.003906,-11675.2930,-5563.9648,1686.5234,12573.2422,0
0.003906,-11675.2930,-5563.9648,1686.5234,12573.2422,0
0.003906,-11675.2930,-5563.9648,1686.5234,12573.2422,0
0.003906,-11675.2930,-5563.9648,1686.5234,12573.2422,0
0.003906,-11675.2930,-5563.9648,1686.5234,12573.2422,0
0.003906,-11675.2930,-5563.9648,1686.5234,12573.2422,0
0.003906,-11675.2930,-5563.9648,1686.5234,12573.2422,0
0.003906,-11675.2930,-5563.9648,1686.5234,12573.2422,0
0.007812,11196.7773,12990.7227,-5019.5312,1172.8516,0
0.007812,11196.7773,12990.7227,-5019.5312,1172.8516,0
0.007812,11196.7773,12990.7227,-5019.5312,1172.8516,0
0.007812,11196.7773,12990.7227,-5019.5312,1172.8516,0
0.007812,11196.7773,12990.7227,-5019.5312,1172.8516,0
0.007812,11196.7773,12990.7227,-5019.5312,1172.8516,0
0.007812,11196.7773,12990.7227,-5019.5312,1172.8516,0
0.007812,11196.7773,12990.7227,-5019.5312,1172.8516,0
0.007812,11196.7773,12990.7227,-5019.5312,1172.8516,0
0.007812,11196.7773,12990.7227,-5019.5312,1172.8516,0
0.007812,11196.7773,12990.7227,-5019.5312,1172.8516,0
0.007812,11196.7773,12990.7227,-5019.5312,1172.8516,0
0.007812,11196.7773,12990.7227,-5019.5312,1172.8516,0
0.007812,11196.7773,12990.7227,-5019.5312,1172.8516,0
0.007812,11196.7773,12990.7227,-5019.5312,1172.8516,0
0.007812,11196.7773,12990.7227,-5019.5312,1172.8516,0
0.007812,11196.7773,12990.7227,-5019.5312,1172.8516,0
0.007812,11196.7773,12990.7227,-5019.5312,1172.8516,0
0.007812,11196.7773,12990.7227,-5019.5312,1172.8516,0
0.007812,11196.7773,12990.7227,-5019.5312,1172.8516,0
0.007812,11196.7773,12990.7227,-5019.5312,1172.8516,0
0.007812,11196.7773,12990.7227,-5019.5312,1172.8516,0
0.007812,11196.7773,12990.7227,-5019.5312,1172.8516,0
0.007812,11196.7773,12990.7227,-5019.5312,1172.8516,0
0.007812,11196.7773,12990.7227,-5019.5312,1172.8516,0
0.007812,11196.7773,12990.7227,-5019.5312,1172.8516,0
0.011719,-12823.7305,15776.8555,15659.6680,-13237.7930,0
0.011719,-12823.7305,15776.8555,15659.6680,-13237.7930,0
0.011719,-12823.7305,15776.8555,15659.6680,-13237.7930,0
0.011719,-12823.7305,15776.8555,15659.6680,-13237.7930,0
0.011719,-12823.7305,15776.8555,15659.6680,-13237.7930,0
0.011719,-12823.7305,15776.8555,15659.6680,-13237.7930,0
0.011719,-12823.7305,15776.8555,15659.6680,-13237.7930,0
0.011719,-12823.7305,15776.8555,15659.6680,-13237.7930,0
0.011719,-12823.7305,15776.8555,15659.6680,-13237.7930,0
0.011719,-12823.7305,15776.8555,15659.6680,-13237.7930,0
0.011719,-12823.7305,15776.8555,15659.6680,-13237.7930,0
0.011719,-12823.7305,15776.8555,15659.6680,-13237.7930,0
0.011719,-12823.7305,15776.8555,15659.6680,-13237.7930,0
0.011719,-12823.7305,15776.8555,15659.6680,-13237.7930,0
0.011719,-12823.7305,15776.8555,15659.6680,-13237.7930,0
0.011719,-12823.7305,15776.8555,15659.6680,-13237.7930,0
0.011719,-12823.7305,15776.8555,15659.6680,-13237.7930,0
0.011719,-12823.7305,15776.8555,15659.6680,-13237.7930,0
0.011719,-12823.7305,15776.8555,15659.6680,-13237.7930,0
0.011719,-12823.7305,15776.8555,15659.6680,-13237.7930,0
0.011719,-12823.7305,15776.8555,15659.6680,-13237.7930,0
0.011719,-12823.7305,15776.8555,15659.6680,-13237.7930,0
0.011719,-12823.7305,15776.8555,15659.6680,-13237.7930,0
0.011719,-12823.7305,15776.8555,15659.6680,-13237.7930,0
0.011719,-12823.7305,15776.8555,15659.6680,-13237.7930,0
0.011719,-12823.7305,15776.8555,15659.6680,-13237.7930,0
0.015625,-12925.2930,-4563.9648,-8189.4531,9446.7773,0
0.015625,-12925.2930,-4563.9648,-8189.4531,9446.7773,0
0.015625,-12925.2930,-4563.9648,-8189.4531,9446.7773,0
0.015625,-12925.2930,-4563.9648,-8189.4531,9446.7773,0
0.015625,-12925.2930,-4563.9648,-8189.4531,9446.7773,0
0.015625,-12925.2930,-4563.9648,-8189.4531,9446.7773,0
0.015625,-12925.2930,-4563.9648,-8189.4531,9446.7773,0
0.015625,-12925.2930,-4563.9648,-8189.4531,9446.7773,0
0.015625,-12925.2930,-4563.9648,-8189.4531,9446.7773,0
0.015625,-12925.2930,-4563.9648,-8189.4531,9446.7773,0
0.015625,-12925.2930,-4563.9648,-8189.4531,9446.7773,0
0.015625,-12925.2930,-4563.9648,-8189.4531,9446.7773,0
0.015625,-12925.2930,-4563.9648,-8189.4531,9446.7773,0
0.015625,-12925.2930,-4563.9648,-8189.4531,9446.7773,0
0.015625,-12925.2930,-4563.9648,-8189.4531,9446.7773,0
0.015625,-12925.2930,-4563.9648,-8189.4531,9446.7773,0
0.015625,-12925.2930,-4563.9648,-8189.4531,9446.7773,0
0.015625,-12925.2930,-4563.9648,-8189.4531,9446.7773,0
0.015625,-12925.2930,-4563.9648,-8189.4531,9446.7773,0
0.015625,-12925.2930,-4563.9648,-8189.4531,9446.7773,0
0.015625,-12925.2930,-4563.9648,-8189.4531,9446.7773,0
0.015625,-12925.2930,-4563.9648,-8189.4531,9446.7773,0
0.015625,-12925.2930,-4563.9648,-8189.4531,9446.7773,0
0.015625,-12925.2930,-4563.9648,-8189.4531,9446.7773,0
0.015625,-12925.2930,-4563.9648,-8189.4531,9446.7773,0
0.015625,-12925.2930,-4563.9648,-8189.4531,9446.7773,0
0.019531,11191.4062,10977.5391,-7020.5078,-14840.3320,0
0.019531,11191.4062,10977.5391,-7020.5078,-14840.3320,0
0.019531,11191.4062,10977.5391,-7020.5078,-14840.3320,0
0.019531,11191.4062,10977.5391,-7020.5078,-14840.3320,0
0.019531,11191.4062,10977.5391,-7020.5078,-14840.3320,0
0.019531,11191.4062,10977.5391,-7020.5078,-14840.3320,0
0.019531,11191.4062,10977.5391,-7020.5078,-14840.3320,0
0.019531,11191.4062,10977.5391,-7020.5078,-14840.3320,0
0.019531,11191.4062,10977.5391,-7020.5078,-14840.3320,0
0.019531,11191.4062,10977.5391,-7020.5078,-14840.3320,0
0.019531,11191.4062,10977.5391,-7020.5078,-14840.3320,0
0.019531,11191.4062,10977.5391,-7020.5078,-14840.3320,0
0.019531,11191.4062,10977.5391,-7020.5078,-14840.3320,0
0.019531,11191.4062,10977.5391,-7020.5078,-14840.3320,0
0.019531,11191.4062,10977.5391,-7020.5078,-14840.3320,0
0.019531,11191.4062,10977.5391,-7020.5078,-14840.3320,0
0.019531,11191.4062,10977.5391,-7020.5078,-14840.3320,0
0.019531,11191.4062,10977.5391,-7020.5078,-14840.3320,0
0.019531,11191.4062,10977.5391,-7020.5078,-14840.3320,0
0.019531,11191.4062,10977.5391,-7020.5078,-14840.3320,0
0.019531,11191.4062,10977.5391,-7020.5078,-14840.3320,0
0.019531,11191.4062,10977.5391,-7020.5078,-14840.3320,0
0.019531,11191.4062,10977.5391,-7020.5078,-14840.3320,0
0.019531,11191.4062,10977.5391,-7020.5078,-14840.3320,0
0.019531,11191.4062,10977.5391,-7020.5078,-14840.3320,0
0.019531,11191.4062,10977.5391,-7020.5078,-14840.3320,0
0.023438,-12667.4805,15675.2930,15667.4805,-13300.2930,0
0.023438,-12667.4805,15675.2930,15667.4805,-13300.2930,0
0.023438,-12667.4805,15675.2930,15667.4805,-13300.2930,0
0.023438,-12667.4805,15675.2930,15667.4805,-13300.2930,0
0.023438,-12667.4805,15675.2930,15667.4805,-13300.2930,0
0.023438,-12667.4805,15675.2930,15667.4805,-13300.2930,0
0.023438,-12667.4805,15675.2930,15667.4805,-13300.2930,0
0.023438,-12667.4805,15675.2930,15667.4805,-13300.2930,0
0.023438,-12667.4805,15675.2930,15667.4805,-13300.2930,0
0.023438,-12667.4805,15675.2930,15667.4805,-13300.2930,0
0.023438,-12667.4805,15675.2930,15667.4805,-13300.2930,0
0.023438,-12667.4805,15675.2930,15667.4805,-13300.2930,0
0.023438,-12667.4805,15675.2930,15667.4805,-13300.2930,0
0.023438,-12667.4805,15675.2930,15667.4805,-13300.2930,0
0.023438,-12667.4805,15675.2930,15667.4805,-13300.2930,0
0.023438,-12667.4805,15675.2930,15667.4805,-13300.2930,0
0.023438,-12667.4805,15675.2930,15667.4805,-13300.2930,0
0.023438,-12667.4805,15675.2930,15667.4805,-13300.2930,0
0.023438,-12667.4805,15675.2930,15667.4805,-13300.2930,0
0.023438,-12667.4805,15675.2930,15667.4805,-13300.2930,0
0.023438,-12667.4805,15675.2930,15667.4805,-13300.2930,0
0.023438,-12667.4805,15675.2930,15667.4805,-13300.2930,0
0.023438,-12667.4805,15675.2930,15667.4805,-13300.2930,0
0.023438,-12667.4805,15675.2930,15667.4805,-13300.2930,0
0.023438,-12667.4805,15675.2930,15667.4805,-13300.2930,0
0.023438,-12667.4805,15675.2930,15667.4805,-13300.2930,0
0.027344,-13801.2695,-7188.9648,-4813.9648,7821.2891,0
0.027344,-13801.2695,-7188.9648,-4813.9648,7821.2891,0
0.027344,-13801.2695,-7188.9648,-4813.9648,7821.2891,0
0.027344,-13801.2695,-7188.9648,-4813.9648,7821.2891,0
0.027344,-13801.2695,-7188.9648,-4813.9648,7821.2891,0
0.027344,-13801.2695,-7188.9648,-4813.9648,7821.2891,0
0.027344,-13801.2695,-7188.9648,-4813.9648,7821.2891,0
0.027344,-13801.2695,-7188.9648,-4813.9648,7821.2891,0
0.027344,-13801.2695,-7188.9648,-4813.9648,7821.2891,0
0.027344,-13801.2695,-7188.9648,-4813.9648,7821.2891,0
0.027344,-13801.2695,-7188.9648,-4813.9648,7821.2891,0
0.027344,-13801.2695,-7188.9648,-4813.9648,7821.2891,0
0.027344,-13801.2695,-7188.9648,-4813.9648,7821.2891,0
0.027344,-13801.2695,-7188.9648,-4813.9648,7821.2891,0
0.027344,-13801.2695,-7188.9648,-4813.9648,7821.2891,0
0.027344,-13801.2695,-7188.9648,-4813.9648,7821.2891,0
0.027344,-13801.2695,-7188.9648,-4813.9648,7821.2891,0
0.027344,-13801.2695,-7188.9648,-4813.9648,7821.2891,0
0.027344,-13801.2695,-7188.9648,-4813.9648,7821.2891,0
0.027344,-13801.2695,-7188.9648,-4813.9648,7821.2891,0
0.027344,-13801.2695,-7188.9648,-4813.9648,7821.2891,0
0.027344,-13801.2695,-7188.9648,-4813.9648,7821.2891,0
0.027344,-13801.2695,-7188.9648,-4813.9648,7821.2891,0
0.027344,-13801.2695,-7188.9648,-4813.9648,7821.2891,0
0.027344,-13801.2695,-7188.9648,-4813.9648,7821.2891,0
0.027344,-13801.2695,-7188.9648,-4813.9648,7821.2891,0
0.031000,-13034.6680,15808.5938,6287.5969,6914.4527,0
0.031250,9187.9883,2978.0273,-15027.3438,-10861.8164,0
0.031250,9187.9883,2978.0273,-15027.3438,-10861.8164,0
0.031250,9187.9883,2978.0273,-15027.3438,-10861.8164,0
0.031250,9187.9883,2978.0273,-15027.3438,-10861.8164,0
0.031250,9187.9883,2978.0273,-15027.3438,-10861.8164,0
0.031250,9187.9883,2978.0273,-15027.3438,-10861.8164,0
0.031250,9187.9883,2978.0273,-15027.3438,-10861.8164,0
0.031250,9187.9883,2978.0273,-15027.3438,-10861.8164,0
0.031250,9187.9883,2978.0273,-15027.3438,-10861.8164,0
0.031250,9187.9883,2978.0273,-15027.3438,-10861.8164,0
0.031250,9187.9883,2978.0273,-15027.3438,-10861.8164,0
0.031250,9187.9883,2978.0273,-15027.3438,-10861.8164,0
0.031250,9187.9883,2978.0273,-15027.3438,-10861.8164,0
0.031250,9187.9883,2978.0273,-15027.3438,-10861.8164,0
0.031250,9187.9883,2978.0273,-15027.3438,-10861.8164,0
0.031250,9187.9883,2978.0273,-15027.3438,-10861.8164,0
0.031250,9187.9883,2978.0273,-15027.3438,-10861.8164,0
0.031250,9187.9883,2978.0273,-15027.3438,-10861.8164,0
0.031250,9187.9883,2978.0273,-15027.3438,-10861.8164,0
0.031250,9187.9883,2978.0273,-15027.3438,-10861.8164,0
0.031250,9187.9883,2978.0273,-15027.3438,-10861.8164,0
0.031250,9187.9883,2978.0273,-15027.3438,-10861.8164,0
0.031250,9187.9883,2978.0273,-15027.3438,-10861.8164,0
0.031250,9187.9883,2978.0273,-15027.3438,-10861.8164,0
0.031250,9187.9883,2978.0273,-15027.3438,-10861.8164,0
0.031250,9187.9883,2978.0273,-15027.3438,-10861.8164,0
0.034906,15949.7070,61.5234,-8465.1250,10538.4101,0
0.038812,9202.1484,14989.2578,13655.9805,-11315.2461,0
0.042719,-12823.7305,15745.6055,-5446.0352,11502.9766,0
0.046625,-14050.2930,-5313.9648,-8449.3118,-1230.4920,0
0.050531,-4810.5469,-1021.9727,-2351.8512,-4557.1502,0
0.054437,-12894.0430,15354.9805,3745.6093,-7883.8084,0
0.058344,-2674.8047,-9563.4766,9843.0699,-11210.4666,0
0.062000,-13542.4805,15792.4805,15550.2930,-14324.2188,0
0.062250,-4851.0742,12997.5586,13998.9181,-13611.1250,0
0.065906,10195.8008,-5938.9648,-8689.9414,-3182.1289,0
0.069812,-2887.6953,-9013.1836,8958.4961,-6916.9922,0
0.073719,-14324.2188,-15972.6562,15401.8555,-14527.3438,0
0.077625,-9059.5703,2812.0117,-11066.4062,-10434.5703,0
0.081531,11025.8789,8986.8164,936.5234,-12953.1250,0
0.085437,-15449.2188,15925.2930,15284.6680,-14925.7812,0
0.089344,9564.9414,-2313.4766,-11316.4062,-11308.1055,0
0.093250,1038.0859,4989.7461,-11052.2461,11072.7539,0
0.125000,-15363.2812,15901.8555,-12339.1953,-6556.1055,0
0.128906,15816.8945,-2813.4766,-6668.8633,8661.3047,0
0.132812,13079.1016,-11001.9531,13431.4805,-13168.4531,0
0.136719,-14996.0938,15784.6680,-7219.6133,-943.7070,0
0.140625,12190.9180,-2937.5000,-10717.7138,12409.3657,0
0.144531,-14926.7578,8992.1875,-7461.8847,5504.1581,0
0.148438,-14707.0312,15933.5938,-4206.0556,-1401.0495,0
0.152344,-9807.1289,186.0352,-950.2265,-8306.2570,0
0.156250,5087.4023,-7012.6953,2305.6026,-14796.0313,0
0.172000,-14746.0938,15917.4805,15433.1055,-7818.8086,0
0.175906,-14558.1055,-4688.9648,-10064.4531,-2155.3164,0
0.179812,-8905.7617,10988.2812,10978.5156,-13400.5469,0
0.183719,-14371.0938,15729.9805,15683.1055,-6295.7148,0
0.187625,-4931.1523,-6563.4766,-7939.4531,-10951.8582,0
0.191531,-4901.3672,-9002.9297,4978.5156,-11432.0294,0
0.195437,-14691.4062,15644.0430,15534.6680,-11912.2007,0
0.199344,-14557.6172,-8314.4531,-7563.9648,-12392.3720,0
0.203250,5077.6367,-9021.4844,10974.1211,-12872.5432,0
0.219000,-14917.9688,15597.1680,15456.5430,-14808.5938,0
0.222906,-13432.6172,-6563.9648,-7813.9648,-14433.5938,0
0.226812,-10905.2734,-13003.4180,-13016.6016,15050.7812,0
0.230719,-14410.1562,-15941.8945,15862.7930,-15292.9688,0
0.234625,-12059.0820,-3063.9648,-1564.4531,6937.5000,0
0.238531,3054.6875,4977.0508,-11033.6914,-1006.8359,0
0.242437,-15136.7188,15659.6680,15573.7305,-15957.0312,0
0.246344,11065.9180,-5064.9414,-7438.9648,3064.4531,0
0.250250,5072.7539,-11030.7617,10989.2578,7046.8750,0
0.265000,-14925.7812,15612.7930,-2683.1833,-15550.7812,0
0.268906,15191.4062,-7063.9648,-3523.3594,7689.9414,0
0.272812,3065.4297,12990.7227,12579.7459,-12942.8711,0
0.276719,-15019.5312,15667.4805,-3235.6833,-14988.2812,0
0.280625,-15808.5938,-8063.9648,8127.6170,-15682.6172,0
0.284531,-6944.3359,-1011.2305,11453.6594,11087.8906,0
0.288437,-15152.3438,15589.3555,12025.1197,-14339.8438,0
0.292344,13564.9414,-6064.4531,12596.5799,-1181.1523,0
0.296250,-4958.4961,-15033.2031,13168.0402,-10899.4141,0
0.312000,-15449.2188,15511.2305,15472.1680,-14339.8438,0
0.315906,12815.4297,-7313.4766,-6063.9648,-1804.1992,0
0.319812,-956.5430,-15009.2773,-3031.7383,-14862.7930,0
0.323719,-15089.8438,15854.9805,15464.3555,-13902.3438,0
0.327625,14691.4062,-3813.9648,-7689.4531,-4181.6406,0
0.331531,5088.3789,8983.8867,12982.4219,-8896.9727,0
0.335437,-14566.4062,15667.4805,15675.2930,-14410.1562,0
0.339344,-13683.5938,-1687.9883,-8564.4531,-8681.6406,0
0.343250,3059.0820,10973.1445,969.2383,-6881.8359,0
0.344000,-15082.0312,15573.7305,15519.0430,-14019.5312,0
0.347906,-10306.1523,-3562.9883,-8064.9414,-555.6641,0
0.351812,-4903.8086,-7006.3477,-9024.9023,7108.3984,0
0.355719,-14558.5938,15729.9805,15550.2930,-14034.6680,0
0.359625,-7931.1523,-4438.9648,-6188.9648,1695.8008,0
0.363531,-2903.8086,12959.4727,-1022.4609,13129.3945,0
0.367437,-14808.5938,15144.0430,15526.8555,-13996.0938,0
0.371344,-15433.5938,-14440.9180,-8814.9414,-3932.1289,0
0.375250,11062.5000,14949.7070,-13027.8320,3075.6836,0
0.390000,-14847.6562,15347.1680,15597.1680,-14746.0938,0
0.393906,-15184.5703,-9441.4062,-6064.4531,14315.4297,0
0.397812,7064.4531,-7045.8984,-11027.3438,11084.4727,0
0.401719,-15082.0312,15503.4180,15597.1680,-14910.1562,0
0.405625,7439.4531,-10314.4531,-7689.4531,6188.9648,0
0.409531,-12955.5664,-7018.0664,-5016.6016,-8963.8672,0
0.413437,-15269.5312,15370.6055,15729.9805,-15574.2188,0
0.417344,14565.9180,-9814.4531,-2312.9883,8439.4531,0
0.421250,-14956.5430,6963.8672,12987.7930,9026.3672,0
0.437000,-15503.9062,15425.2930,15612.7930,-15464.8438,0
0.440906,8314.9414,-7188.9648,-6813.4766,10315.4297,0
0.444812,9040.5273,6978.0273,8988.2812,1044.4336,0
0.448719,-15605.4688,15456.5430,15573.7305,-15425.7812,0
0.452625,5064.4531,-8939.9414,-8063.9648,10189.9414,0
0.456531,-4959.9609,-11024.4141,8977.0508,-12958.4961,0
0.460437,-15402.3438,15479.9805,15636.2305,-15027.3438,0
0.464344,9563.4766,-7438.9648,-6064.9414,-14559.0820,0
0.468250,3026.3672,14968.2617,-11025.3906,-4917.9688,0
0.500000,-15253.9062,15487.7930,-8010.1250,-496.1875,0
0.503906,6312.9883,-10565.9180,-8481.8476,5081.3594,0
0.507812,-2981.9336,-3057.1289,13343.9648,-12381.8867,0
0.511719,-15527.3438,15128.4180,-4949.1250,3643.6211,0
0.515625,3811.0352,-11940.9180,14976.1434,2945.1626,0
0.519531,-13029.2969,14942.8711,15037.8995,883.6641,0
0.523438,15620.6055,15136.2305,15099.6555,-1177.8343,0
0.527344,-7315.4297,-11315.9180,15161.4116,-3239.3328,0
0.531250,-11054.6875,-9064.9414,15223.1676,-5300.8312,0
0.547000,15159.6680,14894.0430,15472.1680,-13612.7930,0
0.550906,-10940.4297,14932.6172,-7063.9648,9447.7539,0
0.554812,956.0547,909.1797,2966.3086,-6812.5000,0
0.558719,15495.6055,14573.7305,15464.3555,-13034.6680,0
0.562625,-9564.4531,6306.6406,-5813.4766,13824.7070,0
0.566531,10976.0742,8914.5508,-7006.3477,-14800.2930,0
0.570437,15581.5430,14253.4180,15636.2305,-13081.5430,0
0.574344,-3687.9883,3430.6641,-8314.9414,15575.1953,0
0.578250,12988.7695,14901.3672,-13027.8320,11212.8906,0
0.609000,8637.6564,14612.7930,15706.5430,-5464.4922,0
0.612906,8040.6640,12308.1055,-3188.4766,7082.2461,0
0.616812,-11664.0626,-9067.3828,14986.8164,-9177.6368,0
0.620719,10533.0860,15011.2305,15808.1055,-10891.5430,0
0.624625,-1691.3868,-13440.9180,-5313.9648,-12807.9051,0
0.628531,-7238.7995,-13054.1992,-3005.3711,11707.2816,0
0.632437,-9958.0968,15011.2305,15847.1680,13268.0469,0
0.636344,-12677.3941,-12565.4297,-1563.4766,-10218.6523,0
0.640000,-15222.6562,15433.1055,-9122.3984,-12050.7031,0
0.640250,-13588.2185,-11042.4805,-11022.4609,-12000.7344,0
0.643906,10315.4297,-10190.4297,-9780.8202,-12666.1133,0
0.647812,7079.1016,-13036.6211,11424.9020,-12873.5742,0
0.651719,-15105.4688,15229.9805,-1951.1130,-14494.0429,0
0.655625,6315.4297,-13440.9180,8384.5897,-3039.4728,0
0.659531,5043.4570,12942.8711,11975.5045,-3319.0511,0
0.663437,-15386.7188,14995.6055,13144.3762,-6318.7353,0
0.667344,11813.9648,-15065.9180,14313.2479,-9318.4194,0
0.671250,15023.4375,-1050.2930,15482.1196,-12318.1036,0
0.672000,-15558.5938,15097.1680,15706.5430,-12894.0430,0
0.675906,13315.9180,-11815.9180,-4313.9648,-10675.2930,0
0.679812,-942.8711,-7056.6406,12987.7930,-6801.7578,0
0.683719,-14917.9688,15222.1680,15878.4180,-12769.0430,0
0.687625,-14433.5938,-12191.8945,-1687.9883,15700.1953,0
0.691531,-12927.7344,-1070.8008,-1009.7656,7214.8438,0
0.695437,-14957.0312,14870.6055,15565.9180,-12690.9180,0
0.699344,-14934.5703,-15065.9180,-7063.9648,-11675.7812,0
0.703250,-4939.4531,14952.1484,2980.4688,15191.8945,0
0.719000,-14644.5312,15073.7305,15831.5430,-12651.8555,0
0.722906,-12309.0820,-15315.4297,-1563.4766,-7674.3164,0
0.726812,-2916.0156,4952.1484,6984.3750,7208.0078,0
0.730719,-14472.6562,15159.6680,15784.6680,-12667.4805,0
0.734625,-10682.1289,-14065.9180,-3313.4766,-10674.3164,0
0.738531,3087.4023,-5042.9688,976.5625,-10784.1797,0
0.742437,-14800.7812,15284.6680,15612.7930,-12659.6680,0
0.746344,-14308.1055,-9314.9414,-4438.9648,-11300.2930,0
0.750250,1066.4062,2965.3320,-15020.9961,-12806.6406,0
0.765000,-14972.6562,15448.7305,15854.9805,-12925.2930,0
0.768906,14191.4062,-15690.9180,-3564.9414,-14801.2695,0
0.772812,-14931.1523,-1029.2969,-9034.1797,13176.7578,0
0.776719,-14644.5312,15456.5430,15534.6680,-13097.1680,0
0.780625,-7057.1289,-7688.9648,-6938.9648,-15926.2695,0
0.784531,-14915.5273,-5006.3477,989.7461,11178.2227,0
0.788437,-14816.4062,15894.0430,15776.8555,-12808.1055,0
0.792344,-12558.1055,-1812.9883,-6814.4531,-15927.2461,0
0.796250,13070.8008,-15007.3242,-1026.3672,-12835.4492,0
0.812000,-14769.5312,15722.1680,15487.7930,-13308.1055,0
0.815906,-13058.5938,-3562.9883,-5563.4766,14822.7539,0
0.819812,3068.8477,14995.6055,975.0977,3157.2266,0
0.823719,-14652.3438,15839.3555,15440.9180,-13292.4805,0
0.827625,-12808.1055,-8940.4297,-9189.4531,12072.7539,0
0.831531,7072.7539,-5048.3398,-11020.9961,-8830.5664,0
0.835437,-14714.8438,14847.1680,15644.0430,-13159.6680,0
0.839344,-8807.6172,14434.0820,-6439.4531,12573.7305,0
0.843250,3063.9648,-11043.4570,-15027.3438,-6802.7344,0
0.875000,-14972.6562,15448.7305,-7141.8320,12756.4140,0
0.878906,-12682.6172,-5063.9648,-6693.2656,-2009.0820,0
0.882812,-12932.6172,-5025.3906,13489.4336,-10760.6211,0
0.886719,-14941.4062,15612.7930,-3490.4766,11526.0078,0
0.890625,-9058.1055,-2812.9883,9120.4078,4767.8804,0
0.894531,-6938.4766,6988.2812,10710.3494,310.3763,0
0.898438,-14957.0312,15808.1055,12300.2910,-4147.1277,0
0.902344,-12557.1289,-1312.9883,13890.2326,-8604.6317,0
0.906250,-2913.0859,-13001.4648,13774.0427,-11418.5740,0
0.922000,-14738.2812,15886.2305,-6397.1601,10676.0078,0
0.925906,-11683.1055,-4063.4766,7750.3945,-5674.3242,0
0.929812,1068.3594,6981.4453,12666.8086,-12035.8555,0
0.933719,-14667.9688,15644.0430,-11243.8984,3472.5508,0
0.937625,-6807.1289,-937.5000,-6774.9350,12820.6009,0
0.941531,-14906.2500,988.2812,-4023.6071,9481.9297,0
0.945437,-14589.8438,15769.0430,-1272.2793,6143.2586,0
0.949344,-12181.6406,-1562.9883,1479.0486,2804.5875,0
0.953250,9104.0039,-9002.9297,4230.3765,-534.0836,0
0.969000,-14300.7812,15948.7305,15323.7305,-13995.6055,0
0.972906,-3556.6406,-3188.9648,-11690.4297,1071.2891,0
0.976812,15096.6797,-3004.3945,8974.1211,-8837.4023,0
0.980719,-13972.6562,15948.7305,15722.1680,-13417.4805,0
0.984625,-2681.6406,-3688.4766,-9315.9180,4196.7773,0
0.988531,-2887.6953,14990.2344,-11048.8281,7152.3438,0
0.992437,-14026.8555,15979.9805,15417.4805,-13456.5430,0
0.996344,819.8242,-938.4766,-8691.4062,12447.2656,0
1.000250,13117.6758,-11010.7422,-7064.9414,-2848.1445,0
1.015000,-14167.9688,15862.7930,15237.7930,-13964.8438,0
1.018906,-303.7109,-1562.0117,-10065.4297,-1054.6875,0
1.022812,-6843.2617,15012.6953,8950.6836,-14862.7930,0
1.026719,-13565.9180,15871.0938,15269.0430,-13433.1055,0
1.030625,8822.2656,62.9883,-8439.9414,12822.2656,0
1.034531,9128.9062,-14998.0469,-5040.0391,-843.2617,0
1.038437,-14175.7812,15956.5430,15292.4805,-13354.9805,0
1.042344,-1179.6875,-3438.4766,-12690.9180,10071.7773,0
1.046250,-2860.8398,-12999.0234,-13042.4805,11143.5547,0
1.047000,-13714.3555,-15965.3320,15683.1055,-13417.4805,0
1.050906,1694.8242,-62.9883,-5565.4297,6445.3125,0
1.054812,-12895.0195,8993.1641,-7045.4102,7125.9766,0
1.058719,-14472.6562,15815.9180,15253.4180,-14081.5430,0
1.062625,-1930.1758,-62.9883,-11940.4297,2822.2656,0
1.066531,-4899.9023,-1005.3711,-7025.8789,-2852.0508,0
1.070437,-14652.3438,15995.6055,15573.7305,-13979.9805,0
1.074344,-10808.5938,-2563.9648,-8689.9414,1695.3125,0
1.078250,-4933.5938,-11017.5781,-9035.6445,7131.8359,0
1.094000,-14738.2812,15886.2305,15487.7930,-13464.3555,0
1.097906,-11182.1289,-1187.9883,-4687.9883,12073.7305,0
1.101812,-8904.2969,14999.5117,2985.8398,-10810.5469,0
1.105719,-14574.2188,15886.2305,15698.7305,-12933.1055,0
1.109625,-14434.0820,-5438.4766,-3563.4766,-14426.2695,0
1.113531,-14927.7344,-12999.5117,2983.8867,5178.7109,0
1.117437,-14753.9062,-15949.7070,15792.4805,-12925.2930,0
1.121344,15064.9414,-812.9883,-3437.9883,14947.7539,0
1.125250,1025.3906,-13012.2070,4992.1875,9152.3438,0
1.156000,-15965.3320,15785.1562,15722.1680,-13620.6055,0
1.159906,-5440.4297,2437.9883,-2438.4766,9572.2656,0
1.163812,-15064.4531,-11006.8359,-3022.9492,-8842.2852,0
1.167719,15151.8555,15917.9688,15753.4180,-13112.7930,0
1.171625,-13316.8945,311.5234,-1813.4766,-15300.7812,0
1.175531,6934.5703,-3004.3945,-5019.5312,1193.3594,0
1.179437,15362.7930,-15761.7188,15816.4062,-12644.0430,0
1.183344,-5064.9414,2686.5234,436.5234,-9050.2930,0
1.187000,15854.9805,15800.2930,15831.5430,-12933.1055,0
1.187250,-3032.2266,-11013.6719,-3011.7188,-4800.7812,0
1.190906,-3188.9648,-3063.4766,-1562.9883,-15926.7578,0
1.194812,4975.5859,-999.0234,12988.2812,-4835.9375,0
1.198719,15511.2305,-15941.8945,15753.4180,-13495.6055,0
1.202625,-3813.4766,-1312.9883,-2188.4766,9322.7539,0
1.206531,-15014.6484,-6993.1641,-13013.1836,3161.1328,0
1.210437,-15871.0938,-15746.0938,-15988.7695,-13214.3555,0
1.214344,2936.5234,5437.5000,-187.9883,13696.7773,0
1.218250,4976.0742,9003.4180,2995.6055,-4856.4453,0
1.250000,15542.4805,-15707.0312,3599.4102,-7294.9648,0
1.253906,-10565.9180,2437.0117,8433.7890,-442.3281,0
1.257812,-9047.3633,11008.7891,-13944.6719,-14153.4219,0
1.261719,15292.4805,-15628.9062,4051.5977,-9271.7773,0
1.265625,-13192.3828,6938.9648,10691.5946,-9069.1034,0
1.269531,10919.9219,7028.3203,7407.8311,-10521.3526,0
1.273438,15019.0430,-15558.5938,4124.0676,-11973.6018,0
1.277344,-12316.8945,8439.4531,840.3041,-13425.8510,0
1.281250,-3083.9844,5029.2969,-2443.4594,-14682.7812,0
1.297000,14722.1680,-15753.9062,-15683.5938,3410.7891,0
1.300906,11554.1992,1814.4531,10188.9648,9653.2773,0
1.304812,12822.7539,5028.8086,7005.3711,14004.3555,0
1.308719,13034.1797,-15582.0312,-15855.4688,-622.4726,0
1.312625,-10195.8008,7564.4531,5439.9414,6857.6268,0
1.316531,12839.8438,13038.0859,7043.9453,4972.7584,0
1.320437,12799.8047,-15589.8438,-15441.4062,3087.8900,0
1.324344,-15698.2422,4438.4766,11190.9180,1203.0215,0
1.328250,-11161.6211,-975.5859,-2935.0586,-681.8469,0
1.359000,710.9960,-15597.6562,9923.9064,-15519.5312,0
1.362906,-12977.4610,5813.4766,4925.1757,6690.9180,0
1.366812,9687.7149,1027.8320,-12158.8282,11090.3320,0
1.370719,10123.5351,-15417.9688,-15583.5938,-14550.7812,0
1.374625,13879.3194,7063.9648,-15269.9319,-9181.6406,0
1.375000,14401.8555,-15589.8438,-15222.6562,-14269.5312,0
1.378531,10522.1855,-8977.5391,12227.1384,-6888.6719,0
1.378906,12308.5938,7938.9648,14190.4297,-1304.1992,0
1.382437,-10590.2383,-15832.0312,-3105.1914,-14104.9805,0
1.382812,-13021.9727,-6966.7969,-4941.8945,13161.1328,0
1.386344,13047.4804,6314.9414,-14108.5781,1569.8242,0
1.386719,15815.9180,-15410.1562,-15082.0312,-13198.7305,0
1.390250,-2832.6133,7035.6445,8215.3906,-8897.4609,0
1.390625,-4812.9883,6437.9883,10689.4531,12948.2422,0
1.394531,1008.7891,-10981.9336,11030.7617,-12816.4062,0
1.398438,-15714.8438,-15621.0938,-15667.9688,-12972.1680,0
1.402344,5813.4766,7689.4531,2562.5000,-15050.7812,0
1.406250,-14985.8398,11024.4141,14996.5820,7189.4531,0
1.422000,-15582.0312,-15613.2812,15940.9180,-12683.1055,0
1.425906,10940.4297,7814.9414,-312.5000,-5172.3633,0
1.429812,13059.5703,-12957.5195,9000.9766,7257.3242,0
1.433719,-14644.5312,-15253.9062,15925.2930,-11510.7422,0
1.437625,-8556.6406,12440.4297,-1813.4766,10205.5664,0
1.441531,-10885.7422,13059.5703,-5016.6016,-6700.1953,0
1.445437,-13987.7930,-15082.0312,15706.5430,-11190.4297,0
1.449344,4071.7773,15566.8945,-5189.4531,12580.5664,0
1.453250,13152.8320,7065.9180,-15029.7852,-12694.8242,0
1.469000,-13425.2930,-15019.5312,15503.4180,-10916.9922,0
1.472906,12573.2422,-14558.1055,-6188.4766,-15041.9922,0
1.476812,-2834.4727,-8930.1758,4978.0273,-10658.2031,0
1.480719,-13456.5430,-15042.9688,15573.7305,-10737.3047,0
1.484625,8447.7539,-13932.6172,-6938.4766,-14167.4805,0
1.488531,1157.2266,-12938.4766,985.3516,-6683.1055,0
1.492437,-13714.3555,-15167.9688,15675.2930,-11284.1797,0
1.496344,3570.8008,-15684.0820,-3813.9648,7454.1016,0
1.500250,7133.7891,-6941.4062,-7017.5781,7261.7188,0
1.515000,-13831.5430,-15027.3438,15808.1055,-11885.7422,0
1.518906,3696.2891,-15559.0820,-1312.9883,1828.6133,0
1.522812,5138.1836,-6949.7070,8989.2578,-8735.8398,0
1.526719,-13964.3555,-15253.9062,15902.3438,-11854.9805,0
1.530625,945.8008,13690.4297,2062.9883,-47.8516,0
1.534531,1104.9805,-6958.9844,6990.7227,-4783.6914,0
1.538437,-14550.7812,-15300.7812,15761.2305,-12854.9805,0
1.542344,-4805.6641,13440.4297,-1687.9883,-12299.8047,0
1.546250,11104.9805,7039.5508,-5002.4414,11194.3359,0
1.578000,-9575.5859,-15449.2188,2029.6719,14134.8086,0
1.581906,-11293.5000,8189.9414,-4209.5899,8834.7265,0
1.585812,-14746.4687,9050.2930,-13972.2187,-10711.9804,0
1.589719,-12255.9844,-15167.9688,3068.2500,12889.4727,0
1.593625,6816.2505,11689.9414,8417.6897,10582.2173,0
1.597531,4144.3405,-8962.4023,2270.5776,4526.4156,0
1.601437,1472.4304,-15597.6562,-3876.5346,-1529.3860,0
1.605344,-1199.4797,6564.4531,-10023.6467,-7585.1876,0
1.609250,-3871.3898,11039.0625,-14555.5626,-11912.6681,0
1.625000,-14644.5312,-15363.2812,2652.6328,4714.1445,0
1.628906,-9932.6172,9313.9648,4845.0625,10518.1992,0
1.632812,5083.0078,11026.8555,-13605.6562,-13372.4219,0
1.636719,-14785.1562,-15496.0938,6699.7344,-7815.1836,0
1.640625,-15559.0820,8064.4531,14676.9001,-14962.3210,0
1.644531,-14951.1719,-12966.3086,10934.8923,-15149.6650,0
1.648438,-15316.4062,-15621.0938,7192.8845,-15337.0090,0
1.652344,8814.4531,6563.9648,3450.8768,-15524.3530,0
1.656250,15040.0391,-2971.6797,-291.1310,-14923.1757,0
1.672000,-15480.4688,-15605.4688,-15378.9062,-13760.8711,0
1.675906,4563.4766,7439.4531,9313.9648,-5536.9492,0
1.679812,5029.7852,9028.8086,-6967.7734,10777.9727,0
1.683719,-15809.0820,-15613.2812,-15464.8438,9962.4336,0
1.687625,-1562.5000,6189.4531,8939.9414,-1232.2392,0
1.691531,-7019.5312,-6957.0312,11041.9922,168.3854,0
1.695437,15229.9805,-15605.4688,-15417.9688,1569.0101,0
1.699344,-10565.4297,8064.4531,11065.4297,2969.6348,0
1.703250,14959.4727,15033.2031,-2945.3125,4370.2594,0
1.719000,15339.3555,-15308.5938,-15113.2812,10017.5781,0
1.722906,-14690.9180,10189.4531,13189.9414,-1587.4023,0
1.726812,-13050.2930,-4958.4961,-8953.1250,8585.4492,0
1.730719,15003.4180,-15441.4062,-15042.9688,9416.0156,0
1.734625,15558.5938,7564.4531,15065.4297,-7712.8906,0
1.738531,8947.7539,-10960.9375,-6937.0117,10609.3750,0
1.742437,15175.2930,-15503.9062,-15042.9688,9642.5781,0
1.746344,-15441.8945,4688.4766,13190.4297,-12589.8438,0
1.750000,15448.7305,-15378.9062,-14972.6562,9658.2031,0
1.750250,-9036.1328,3032.7148,7061.0352,-9404.2969,0
1.753906,-12188.4766,6438.9648,13691.4062,-5834.9609,0
1.757812,12990.7227,-950.1953,1066.8945,8684.5703,0
1.761719,15604.9805,-15488.2812,-15074.2188,11713.8672,0
1.765625,-4313.9648,2563.4766,15941.4062,8926.2695,0
1.769531,-11008.3008,-12984.3750,-4930.6641,-7145.5078,0
1.773438,-15988.7695,-15722.6562,-14980.4688,14120.6055,0
1.777344,-4814.9414,6188.4766,13815.9180,11809.5703,0
1.781250,10961.4258,13001.9531,-4937.0117,-1000.0000,0
1.828000,15839.8438,-15894.5312,-14925.7812,12552.9766,0
1.831906,1435.5469,6312.9883,-11433.1055,8878.7148,0
1.835812,-15043.9453,15001.4648,11069.8242,-12643.4648,0
1.839719,15394.0430,15933.1055,-14886.7188,-9644.1094,0
1.843625,-9314.9414,-1813.4766,-13683.1055,-5570.5566,0
1.844000,15472.1680,15847.1680,-14769.5312,-12370.6055,0
1.847531,2953.6133,-9018.5547,-4930.1758,-6202.3945,0
1.847906,-7438.4766,-6563.4766,14566.4062,-5547.3633,0
1.851437,15159.6680,15933.1055,-15089.8438,2397.5078,0
1.851812,2980.4688,10990.7227,5070.8008,3241.2109,0
1.855344,-14190.4297,-1938.4766,15067.3828,-10652.4922,0
1.855719,15659.6680,15667.4805,-14964.8438,-12127.9297,0
1.859250,966.7969,3000.4883,1087.4023,1281.1094,0
1.859625,-687.0117,-5938.9648,-12682.1289,2705.0781,0
1.863531,-10995.6055,-9017.0898,-909.1797,13279.7852,0
1.867437,15917.9688,15511.2305,-14917.9688,-11745.1172,0
1.871344,1188.4766,-8939.4531,-15183.1055,7580.0781,0
1.875250,9025.3906,-1015.1367,-8924.3164,-712.4023,0
1.890000,-15667.9688,15644.0430,-14792.9688,-11596.6797,0
1.893906,6814.4531,-7439.4531,-10807.6172,8706.5430,0
1.897812,-14966.3086,12980.9570,-6924.3164,9305.1758,0
1.901719,-15582.0312,15597.1680,-14933.5938,-11456.0547,0
1.905625,8564.4531,-7313.9648,-13933.1055,8455.0781,0
1.909531,-8966.3086,10981.4453,13073.2422,-10721.6797,0
1.913437,-15269.5312,15949.2188,-14777.3438,-11487.3047,0
1.917344,-15060.0586,310.5469,-12308.5938,11830.0781,0
1.921250,-1000.0000,-9040.0391,11065.9180,-6723.6328,0
1.937000,15792.4805,15526.8555,-14933.5938,-11487.3047,0
1.940906,-438.4766,-3563.9648,15440.4297,9704.5898,0
1.944812,6976.0742,4965.3320,-6956.5430,3262.6953,0
1.948719,15784.6680,15409.6680,-15222.6562,-11823.2422,0
1.952625,-1437.5000,-11065.4297,14065.4297,3079.1016,0
1.956531,-2980.4688,-5032.2266,-2944.8242,-6713.3789,0
1.960437,-15386.7188,15636.2305,-14933.5938,-11315.4297,0
1.964344,13941.4062,-8315.9180,-15184.0820,8705.0781,0
1.968250,-12925.2930,-11040.5273,-2938.9648,-6724.1211,0
2.000000,-14488.2812,15339.3555,12217.7734,3501.7656,0
2.003906,-1680.1758,-11313.9648,1329.0937,-1810.9570,0
2.007812,-878.9062,8979.9805,-12038.8281,-10565.6484,0
2.011719,-13808.1055,15487.7930,13100.7773,56.0469,0
2.015625,10072.2656,-9564.9414,-9006.9436,-10772.3796,0
2.019531,11138.6719,-9017.0898,-9750.6594,-11051.2763,0
2.023438,-13917.9688,15784.6680,-10494.3752,-11330.1731,0
2.027344,-1930.1758,-8565.4297,-11238.0909,-11609.0698,0
2.031250,-8856.4453,-3029.2969,-11981.8067,-10937.4295,0
2.047000,-13479.9805,15620.6055,-14980.4688,-6874.2617,0
2.050906,12199.7070,-3564.4531,-14058.1055,9007.1250,0
2.054812,1202.1484,-1041.9922,-6944.8242,-11409.3555,0
2.058719,-13300.7812,15526.8555,-15261.7188,-4099.6367,0
2.062625,-180.6641,-6313.4766,12690.4297,6974.8554,0
2.066531,-10876.4648,2976.5625,-6941.4062,4561.4437,0
2.070437,-14011.7188,15472.1680,-14949.2188,2148.0319,0
2.074344,-10185.0586,-3313.4766,14940.4297,-265.3799,0
2.078250,13041.5039,-7009.7656,9062.0117,-2678.7917,0
2.094000,-15238.2812,15753.4180,-14871.0938,-12409.6680,0
2.097906,14440.9180,-3187.9883,-13308.1055,-4423.3398,0
2.101812,-2947.2656,14990.7227,15073.7305,7215.8203,0
2.105719,-15011.7188,15690.9180,-14832.0312,-12448.7305,0
2.109625,14440.4297,-5938.9648,-13057.6172,-5048.3398,0
2.113531,13057.6172,10986.8164,-10915.0391,-12784.1797,0
2.117437,-15183.5938,15792.4805,-14777.3438,-12894.0430,0
2.121344,14191.8945,-3187.9883,-12057.6172,-12674.8047,0
2.125250,1068.3594,2990.2344,-917.4805,-8798.8281,0
2.156000,11529.0739,15940.9180,-7349.3673,10969.3554,0
2.159906,7336.0247,-2813.9648,-8715.0704,5587.2106,0
2.163812,1051.5835,10990.2344,-10627.7475,-374.6163,0
2.167719,-5232.8578,15988.2812,-12540.4246,-6336.4432,0
2.171625,-11517.2991,1186.5234,-14453.1017,-12298.2701,0
2.172000,-12120.6055,15808.1055,-14636.7188,-12870.6055,0
2.175531,-3466.8359,-1022.4609,-10271.2109,-11677.4844,0
2.175906,-2547.8516,-2812.9883,-9807.6172,-11550.7812,0
2.179437,2692.5234,15729.9805,-14426.9336,-5460.2578,0
2.179812,3249.0234,4993.6523,-14917.4805,-4813.4766,0
2.183344,-10333.9297,-1562.9883,-14628.3594,-12294.8711,0
2.183719,-11776.3672,15854.9805,-14597.6562,-13089.3555,0
2.187250,5723.6250,-9010.2539,-10154.0195,11014.0742,0
2.187625,7582.0312,-2813.9648,-9682.1289,13573.7305,0
2.191531,9331.0547,-13019.0430,3097.1680,13192.8711,0
2.195437,-11057.6172,15745.6055,-14496.0938,-13050.2930,0
2.199344,-14916.0156,-2187.9883,-9306.6406,14450.1953,0
2.203250,13345.2148,4973.1445,11089.3555,7193.8477,0
2.219000,-10448.2422,15362.7930,-14808.5938,-13128.4180,0
2.222906,-914.5508,-7563.4766,-11807.1289,-11299.3164,0
2.226812,-10638.6719,2991.6992,-2904.2969,-8789.0625,0
2.230719,-10260.7422,15847.1680,-14488.2812,-12714.3555,0
2.234625,-5790.5273,-4313.9648,-8057.6172,-13549.8047,0
2.238531,3357.4219,8971.1914,-2916.9922,5215.3320,0
2.242437,-10370.1172,15487.7930,-14566.4062,-12526.8555,0
2.246344,-10292.9688,-8689.4531,-9933.1055,-7173.8281,0
2.250250,-698.2422,4980.9570,-14918.4570,9222.6562,0
2.281000,-11745.6055,15589.3555,-14636.7188,-5973.3945,0
2.284906,-6801.7578,-9064.9414,-11807.6172,8974.6875,0
2.288812,-862.3047,-15035.1562,5087.8906,-11143.0586,0
2.292719,-14230.4688,15440.9180,-14488.2812,-592.6484,0
2.296625,-15685.5469,-11315.4297,-11058.5938,6764.1136,0
2.300531,1020.5078,-7025.3906,-2932.6172,1962.1970,0
2.304437,-15847.6562,15479.9805,-14785.1562,-2839.7197,0
2.308344,311.0352,-10564.9414,-11933.1055,-7641.6364,0
2.312000,15714.3555,15089.3555,-14472.6562,-12136.2305,0
2.312250,-15036.6211,2958.4961,-2916.0156,-11514.6680,0
2.315906,-7191.4062,-15565.4297,-8182.6172,-2424.3164,0
2.319812,12951.1719,4963.8672,-10923.8281,-10781.7383,0
2.323719,15495.6055,15284.6680,-14785.1562,-12331.5430,0
2.327625,-5938.4766,-13315.4297,-10432.1289,-2922.3633,0
2.331531,2964.8438,6964.3555,-4908.6914,-6773.9258,0
2.335437,15034.6680,15362.7930,-14785.1562,-12745.6055,0
2.339344,-12314.4531,-13441.8945,-14057.6172,-8173.3398,0
2.343250,2962.4023,-3097.1680,1083.4961,7221.1914,0
2.375000,15401.8555,14034.6680,-14482.1289,-6807.9687,0
2.378906,-7189.4531,679.1992,-14941.2266,5367.2070,0
2.382812,-11023.9258,12873.0469,-12081.1093,-11053.9805,0
2.386719,15628.4180,14175.2930,14638.6914,-1588.4040,0
2.390625,-8314.4531,2929.6875,6815.3413,-12712.8530,0
2.394531,2984.3750,-13128.9062,4108.5282,3406.2108,0
2.398438,15988.2812,14151.8555,1401.7151,-5772.9493,0
2.402344,2813.4766,4930.6641,-1305.0979,-7818.9451,0
2.406250,-4957.0312,4900.8789,-4011.9110,6751.6599,0
2.422000,-15191.4062,14589.3555,-14925.7812,8983.7563,0
2.425906,12565.4297,8305.1758,-15683.5938,7312.2399,0
2.429812,-8933.5938,-1103.0273,3069.3359,5640.7234,0
2.433719,-14621.0938,14644.0430,-14824.2188,3969.2070,0
2.437625,-9806.6406,9306.6406,15190.9180,2297.6905,0
2.441531,3107.9102,8908.2031,5062.5000,626.1741,0
2.445437,-14261.7188,14409.6680,-15035.1562,-1045.3424,0
2.449344,-5681.6406,5931.6406,13189.9414,-2716.8589,0
2.453250,11098.6328,12912.1094,-6951.1719,-4388.3753,0
2.469000,-14511.7188,14511.2305,-15222.6562,-11127.9297,0
2.472906,-8806.6406,9181.6406,12065.4297,11581.0547,0
2.476812,-14895.9961,2909.1797,-4946.7773,9295.8984,0
2.480719,-14308.5938,14620.6055,-15152.3438,-11362.3047,0
2.484625,-4055.6641,9432.1289,13065.4297,8704.5898,0
2.488531,5102.0508,910.6445,-6952.1484,5265.6250,0
2.492437,-14206.5430,14526.8555,-15230.4688,-11815.4297,0
2.496344,2945.3125,11057.1289,14439.9414,4953.6133,0
2.500250,15113.2812,6904.7852,-6966.7969,-8763.6719,0
2.515000,2583.0857,14565.9180,-15449.2188,-8774.4727,0
2.518906,-11571.6990,9182.1289,9440.4297,6437.4021,0
2.522812,-13871.5430,6916.5039,-14948.7305,-9530.1365,0
2.526719,2910.9959,14659.6680,-15300.7812,-14317.3828,0
2.530625,-1413.1640,11181.6406,10689.4531,-2993.2423,0
2.534531,-5011.8205,-9091.7969,13030.2734,-3240.0106,0
2.538437,-7598.6696,14550.2930,-15535.1562,-6154.3182,0
2.542344,-10185.5188,10932.1289,6939.4531,-9068.6258,0
2.546250,-12772.3679,-5087.4023,-14965.8203,-11982.9334,0
2.547000,-13269.0430,14659.6680,-15410.1562,-12542.4805,0
2.550906,11571.7773,11932.6172,12940.4297,-6049.3164,0
2.554812,-10863.7695,912.5977,-8951.1719,-787.1094,0
2.558719,-14128.9062,14448.7305,-15378.9062,-12753.4180,0
2.562625,-2805.6641,7931.6406,8064.4531,-14550.2930,0
2.566531,-8887.2070,10907.2266,-12956.5430,-10798.3398,0
2.570437,-14261.7188,14542.4805,-15339.8438,-12737.7930,0
2.574344,-6557.1289,9932.1289,9814.4531,-11925.7812,0
2.578250,-905.2734,-7079.5898,11038.0859,15190.9180,0
2.625000,-14417.9688,14628.4180,6756.9375,-13097.0469,0
2.628906,-679.1992,11682.6172,-15024.7148,8850.3476,0
2.632812,11125.9766,10916.5039,-13195.5156,-10675.1367,0
2.636719,-14089.8438,14683.1055,6201.2344,9938.4139,0
2.640000,-13964.8438,14776.8555,-15566.4062,-13120.6055,0
2.640625,-2180.6641,12182.6172,-259.3900,-4922.0127,0
2.643906,-1430.1758,12182.6172,5938.9648,11572.7539,0
2.644531,-4891.6016,-1075.6836,3553.2615,10227.8319,0
2.647812,-4870.1172,-15071.2891,-8971.6797,3166.9922,0
2.648438,-14277.3438,14808.1055,-10031.8360,514.7264,0
2.651719,-14105.4688,14729.9805,-15597.6562,-13409.6680,0
2.652344,-2930.1758,13308.1055,-11951.7966,-10052.4802,0
2.655625,-4430.6641,10057.1289,7188.9648,7572.7539,0
2.656250,-4866.6992,2931.6406,4923.2616,3989.4724,0
2.659531,3117.6758,8907.2266,-6971.6797,-14822.7539,0
2.663437,-14105.4688,14612.7930,-15574.2188,-13190.9180,0
2.667344,-1431.1523,13057.1289,7563.9648,11447.2656,0
2.671250,9096.1914,-5083.9844,15029.7852,-6835.4492,0
2.687000,-14300.7812,14628.4180,-15472.6562,-13362.7930,0
2.690906,-5431.1523,8431.6406,6188.9648,8323.2422,0
2.694812,-895.0195,-15090.8203,13030.2734,11181.6406,0
2.698719,-14746.0938,14378.4180,-15566.4062,-13472.1680,0
2.702625,-11932.1289,5556.1523,7814.4531,8698.2422,0
2.706531,-8897.4609,2907.2266,-2964.3555,-14807.6172,0
2.710437,-14339.8438,14542.4805,-15511.7188,-12792.4805,0
2.714344,-7932.1289,8306.1523,7438.9648,15948.2422,0
2.718250,15088.8672,2895.5078,11030.2734,-14819.3359,0
2.750000,-14683.5938,14386.2305,4315.5898,-14949.6562,0
2.753906,-11432.1289,7556.1523,-11410.0820,-12855.1406,0
2.757812,11092.7734,-5106.4453,-13684.7969,-10710.5429,0
2.761719,-14769.5312,14198.7305,4696.5352,10132.5351,0
2.765625,-11682.1289,5806.1523,12677.1615,-12864.8158,0
2.769531,7070.3125,-13103.0273,9141.3276,-13058.8205,0
2.773438,-14894.5312,14276.8555,5605.4937,-13252.8251,0
2.777344,-13433.1055,3555.6641,2069.6598,-13446.8297,0
2.781250,13075.6836,-5096.1914,-1466.1740,-12255.6052,0
2.797000,-14800.7812,14331.5430,-15722.6562,8583.6289,0
2.800906,-13058.1055,5055.6641,5063.4766,3362.0976,0
2.804812,-10930.1758,-5109.3750,-973.1445,-11542.3242,0
2.808719,-14902.3438,14183.1055,-15558.5938,4968.3086,0
2.812625,-13558.1055,3805.6641,7189.4531,-14824.2226,0
2.816531,7059.0820,-15108.3984,13031.2500,-14666.5885,0
2.820437,-15128.9062,14292.4805,-15542.9688,-14508.9544,0
2.824344,11439.9414,4430.6641,4812.9883,-14351.3203,0
2.828250,5033.6914,-13094.7266,-10970.2148,-14193.6862,0
2.844000,15956.5430,14237.7930,-15511.7188,-13558.1055,0
2.847906,-4188.4766,2055.6641,6188.9648,1945.3125,0
2.851812,-1008.3008,-9108.3984,15018.5547,-6866.6992,0
2.855719,-15980.4688,14159.6680,-15683.5938,-13901.8555,0
2.859625,3437.9883,4181.1523,7939.4531,6447.2656,0
2.863531,4988.2812,14893.5547,1026.8555,-12856.4453,0
2.867437,15675.2930,14151.8555,-15621.0938,-13956.5430,0
2.871344,-437.0117,4805.6641,5688.4766,2821.2891,0
2.875250,1007.8125,12895.9961,1018.5547,-2858.3984,0
2.890000,-15621.0938,14394.0430,3887.2654,4527.6560,0
2.893906,10189.9414,4556.1523,13845.5859,7293.4766,0
2.897812,-14948.7305,10903.3203,-10623.1247,-10202.4021,0
2.901719,-14933.5938,14433.1055,2401.8552,2728.4959,0
2.905625,-13808.1055,6180.6641,-3239.8241,-6490.7030,0
2.909531,15079.5898,-3088.8672,-7151.9572,-9787.1704,0
2.913437,-14871.0938,14644.0430,-9756.2449,-10919.5905,0
2.917344,-14433.1055,10557.1289,-12360.5327,-12052.0107,0
2.921250,-10916.5039,12917.4805,-14964.8205,-13184.4308,0
2.922000,-14550.7812,14714.3555,-15464.8438,-13401.8555,0
2.925906,-11057.6172,10057.1289,6938.9648,3570.3125,0
2.929812,9074.2188,14921.8750,-4968.7500,-2864.2578,0
2.933719,-14902.3438,14675.2930,-15574.2188,-13839.3555,0
2.937625,-11308.1055,11557.1289,6688.9648,3571.2891,0
2.941531,15064.9414,-3082.5195,11019.0430,1138.6719,0
2.945437,-15003.9062,14675.2930,-15683.5938,-13558.1055,0
2.949344,-15558.1055,11682.1289,4938.4766,9321.2891,0
2.953250,13051.2695,12910.6445,-12980.9570,-6871.0938,0
2.969000,-15386.7188,14698.7305,-15761.7188,-13964.3555,0
2.972906,7813.4766,12182.1289,4188.4766,569.8242,0
2.976812,1019.5312,-7070.3125,1015.6250,-867.1875,0
2.980719,-15597.6562,14839.3555,-15785.1562,-13871.0938,0
2.984625,3812.9883,9806.6406,687.5000,-805.1758,0
2.988531,-12979.4922,-5080.5664,-4979.9805,13134.7656,0
2.992437,-15777.3438,14753.4180,-15699.2188,-13753.4180,0
2.996344,5439.4531,13182.6172,3563.4766,5071.7773,0
3.000250,9037.1094,12925.2930,3016.6016,13147.4609,0
3.031000,-15199.2188,14979.9805,5259.5938,5316.0390,0
3.034906,-14932.6172,15308.1055,10223.2578,-9331.3203,0
3.038812,1082.0312,-13068.3594,-14374.0156,-12082.4961,0
3.042719,-14582.0312,14917.4805,-390.2227,4251.7734,0
3.046625,-6181.6406,15307.6172,-6456.0896,6621.7332,0
3.050531,-8906.7383,-1068.8477,-759.8383,1343.7665,0
3.054437,-14535.1562,14792.4805,4936.4130,-3934.2002,0
3.058344,-6056.1523,11307.6172,10632.6643,-9212.1669,0
3.062000,-14621.0938,14745.6055,15964.3555,-14152.3438,0
3.062250,-6901.3672,-1071.2891,14850.6055,-13482.1563,0
3.065906,-11432.1289,11182.1289,-1437.9883,-3680.6641,0
3.069812,-12899.4141,-1071.7773,14997.5586,13119.1406,0
3.073719,-14582.0312,14761.2305,15933.1055,-14113.2812,0
3.077625,-11931.6406,10432.6172,-2062.9883,-1804.1992,0
3.081531,13111.3281,4926.7578,9000.4883,13149.9023,0
3.085437,-14378.9062,14620.6055,15815.9180,-13792.4805,0
3.089344,-7306.1523,9932.6172,-5438.9648,2446.2891,0
3.093250,3106.4453,12923.3398,977.0508,3137.6953,0
3.125000,-14253.9062,14808.1055,-3114.6172,3134.6914,0
3.128906,-4181.6406,14432.6172,4796.1211,-7498.4375,0
3.132812,-2895.5078,-7075.6836,-14614.5039,-11328.4023,0
3.136719,-14277.3438,14722.1680,-1690.9922,9803.1406,0
3.140625,-4181.1523,11057.1289,3146.5728,12838.9806,0
3.144531,-889.1602,-13078.1250,4739.4943,9554.4361,0
3.148438,-14050.7812,14729.9805,6332.4157,6269.8917,0
3.152344,-1430.6641,12807.6172,7925.3372,2985.3472,0
3.156250,7108.8867,14919.9219,9518.2587,-299.1972,0
3.172000,-14308.5938,14808.1055,15940.9180,-13542.4805,0
3.175906,-3680.1758,13933.1055,-812.9883,9322.2656,0
3.179812,-2877.4414,8931.1523,8986.8164,-8846.1914,0
3.183719,-14175.7812,14769.0430,15753.4180,-13636.2305,0
3.187625,-1805.6641,12307.6172,-1438.9648,11572.7539,0
3.191531,5100.5859,14929.6875,-11025.3906,-12849.6094,0
3.195437,-14417.9688,14948.7305,15815.9180,-13565.9180,0
3.199344,-10058.1055,12682.6172,-4188.9648,4695.3125,0
3.203250,-6925.7812,-9070.8008,-5017.5781,-2872.0703,0
3.219000,-14800.7812,14925.2930,15792.4805,-13753.4180,0
3.222906,-13558.1055,-15691.8945,-2938.4766,4821.2891,0
3.226812,-10920.8984,12925.2930,6985.3516,-8847.1680,0
3.230719,-14886.7188,14894.0430,15753.4180,-13675.2930,0
3.234625,12063.4766,15933.1055,-4189.4531,4070.8008,0
3.238531,-6980.9570,-7061.5234,-13021.4844,-8859.8633,0
3.242437,-15660.1562,15144.0430,15808.1055,-13698.7305,0
3.246344,3687.5000,-13691.4062,-4813.9648,2320.3125,0
3.250250,10995.6055,12937.5000,2965.8203,-8863.2812,0
3.265000,-15886.7188,15081.5430,-917.3435,-13464.3555,0
3.268906,2937.5000,-13065.9180,8556.4647,10447.2656,0
3.272812,7007.3242,929.6875,14796.2304,-8845.7031,0
3.276719,-15785.6445,14831.5430,-3450.2537,-13644.0430,0
3.280625,-1939.9414,-14691.4062,3038.0272,7571.2891,0
3.284531,-11036.1328,12939.9414,7169.8405,-6867.1875,0
3.288437,15573.7305,15144.0430,9797.7430,-13784.6680,0
3.292344,-3687.9883,-14566.4062,12425.6456,5196.2891,0
3.296250,5001.4648,10944.8242,15053.5482,5147.9492,0
3.297000,-15917.9688,15269.0430,15558.1055,-13448.7305,0
3.300906,437.5000,-12065.4297,-8190.4297,9822.7539,0
3.304812,-13014.6484,14960.4492,12953.1250,-2822.2656,0
3.308719,15558.1055,15190.9180,15065.9180,-13261.2305,0
3.312625,-3438.4766,-13691.4062,-15315.9180,10447.2656,0
3.316531,12981.4453,-5064.4531,4948.7305,5146.4844,0
3.320437,15824.2188,14987.7930,15144.0430,-13636.2305,0
3.324344,1063.9648,15933.5938,15183.1055,7072.7539,0
3.328250,-10960.4492,-15048.8281,-15059.5703,5170.4102,0
3.344000,-15582.0312,15112.7930,14862.7930,-13456.5430,0
3.347906,5938.9648,-14190.9180,12057.6172,5321.2891,0
3.351812,9025.3906,-7047.8516,914.5508,-12845.2148,0
3.355719,-15363.2812,15222.1680,14597.1680,-13394.0430,0
3.359625,9562.5000,-14441.4062,12182.6172,11446.7773,0
3.363531,-5005.3711,6939.4531,8920.8984,-4848.6328,0
3.367437,-15839.8438,14964.3555,14745.6055,-13409.6680,0
3.371344,7690.4297,-15440.9180,12307.6172,10823.2422,0
3.375250,13051.2695,12938.9648,10922.3633,-826.6602,0
3.390000,-15042.9688,14979.9805,14894.0430,-13198.7305,0
3.393906,-12307.6172,-14190.9180,15307.6172,13698.2422,0
3.397812,5080.5664,10950.6836,12915.5273,3172.8516,0
3.401719,-14519.5312,15229.9805,14714.3555,-13198.7305,0
3.405625,-5430.6641,-14066.4062,13307.6172,12323.7305,0
3.409531,3105.4688,-9054.6875,-7070.8008,3189.4531,0
3.413437,-14464.8438,15128.4180,15003.4180,-13011.2305,0
3.417344,-5680.6641,-10814.9414,-13066.4062,15323.7305,0
3.421250,5111.8164,-15039.0625,-9060.5469,-14826.1719,0
3.437000,-14191.4062,15339.3555,15214.3555,-13253.4180,0
3.440906,-2680.6641,-12315.9180,-13941.4062,12698.2422,0
3.444812,13111.3281,10945.8008,-13050.7812,15178.2227,0
3.448719,-14003.4180,15081.5430,15253.4180,-13183.1055,0
3.452625,3070.8008,14682.6172,-11940.9180,13073.7305,0
3.456531,-862.7930,-15082.5195,-3043.4570,-12820.3125,0
3.460437,-13792.4805,14472.1680,15448.7305,-13183.1055,0
3.464344,3570.8008,6306.1523,-9315.4297,11572.7539,0
3.468250,11136.7188,4906.7383,-11040.0391,-8824.7070,0
3.500000,-13910.1562,14612.7930,-9153.1016,8212.6601,0
3.503906,-2055.1758,9556.6406,4191.2695,-12886.6914,0
3.507812,13134.2773,-9085.9375,13741.5117,-10983.0586,0
3.511719,-13753.4180,14690.9180,-5680.6992,11151.4609,0
3.515625,4571.2891,11682.1289,-14773.2534,6698.5793,0
3.519531,-14854.4922,-9076.1719,-12207.8593,1687.0359,0
3.523438,-13604.9805,14815.9180,-9642.4652,-3324.5075,0
3.527344,9698.2422,12683.1055,-7077.0711,-8336.0509,0
3.531250,-14820.8008,929.6875,-4511.6770,-11356.4489,0
3.562000,-13315.9180,14769.0430,15683.1055,7354.7890,0
3.565906,7821.7773,12057.6172,-5813.9648,4812.6591,0
3.569812,5139.6484,6915.0391,6973.1445,2295.2592,0
3.573719,-13753.4180,14620.6055,15604.9805,-222.1406,0
3.577625,3820.8008,10557.1289,-5188.9648,-2739.5404,0
3.581531,-8859.8633,12918.4570,8967.2852,-5256.9402,0
3.585437,-13675.2930,14714.3555,15495.6055,-7774.3401,0
3.589344,6696.7773,11807.6172,-6189.9414,-10291.7399,0
3.593250,11152.8320,-11065.9180,-7029.7852,-12809.1397,0
3.594000,-13597.1680,14870.6055,15644.0430,-13292.4805,0
3.597906,5321.2891,12056.6406,-5188.9648,8572.2656,0
3.601812,-12847.6562,-1087.8906,-11022.9492,13165.5273,0
3.605719,-13691.4062,14761.2305,15550.2930,-13464.3555,0
3.609625,-304.6875,11557.1289,-8814.9414,5821.2891,0
3.613531,1139.1602,4927.2461,12965.3320,-6845.2148,0
3.617437,-13698.7305,14737.7930,15495.6055,-13433.1055,0
3.621344,5196.2891,8182.1289,-7564.4531,8071.7773,0
3.625250,11130.8594,-11077.1484,-13025.8789,11154.2969,0
3.656000,1409.7774,14839.3555,-7104.9492,-618.6171,0
3.659906,4413.9578,14558.1055,-1783.2904,-3883.9024,0
3.663812,8063.9571,8927.2461,3822.9825,-7112.1051,0
3.667719,11713.9563,14589.3555,9429.2554,-10340.3078,0
3.671625,15363.9555,11308.1055,15035.5283,-13568.5105,0
3.672000,15714.3555,15081.5430,15573.7305,-13878.4180,0
3.675531,-4764.2461,-15070.3125,-5456.6289,-929.7656,0
3.675906,-6938.9648,-13190.9180,-7689.9414,445.3125,0
3.679437,3845.9141,14870.6055,3748.6601,2868.6328,0
3.679812,4991.2109,12946.2891,4963.3789,3125.9766,0
3.683344,14826.1836,14182.6172,14456.2617,-12472.4375,0
3.683719,15870.6055,15136.2305,15464.3555,-14128.9062,0
3.687250,-1924.2461,10929.1992,-6936.5703,-3101.6953,0
3.687625,-3813.9648,-11815.9180,-9315.4297,-1930.6641,0
3.691531,4982.4219,-15055.6641,-13041.0156,7102.5391,0
3.695437,15940.9180,15128.4180,15370.6055,-14316.4062,0
3.699344,-5064.9414,-12690.4297,-10565.4297,-3055.1758,0
3.703250,-1026.3672,14953.6133,12950.6836,-10901.8555,0
3.719000,15589.3555,15276.8555,15284.6680,-14605.4688,0
3.722906,-2311.5234,-12190.4297,-11190.4297,-9932.1289,0
3.726812,15034.6680,959.4727,-5041.5039,7098.1445,0
3.730719,-15175.7812,15206.5430,15347.1680,-14378.9062,0
3.734625,-14809.0820,-14439.9414,-11565.9180,-6557.1289,0
3.738531,-12940.4297,963.8672,-15053.7109,1075.6836,0
3.742437,-14824.2188,15362.7930,15011.2305,-14792.9688,0
3.746344,-10307.6172,-9065.4297,15808.5938,-14184.0820,0
3.750250,13087.8906,-3050.2930,10952.6367,-6926.2695,0
3.765000,-14238.2812,15245.6055,15198.7305,-14503.9062,0
3.768906,-1055.6641,-10439.9414,-14940.9180,-6807.1289,0
3.772812,1105.4688,-9017.0898,2958.4961,3087.4023,0
3.776719,-14347.6562,15604.9805,15159.6680,-14699.2188,0
3.780625,-7807.1289,-10189.4531,14433.5938,-14057.6172,0
3.784531,15094.7266,-3011.7188,10939.9414,-6908.2031,0
3.788437,-14113.2812,15729.9805,14979.9805,-14449.2188,0
3.792344,-305.6641,-5564.9414,15808.1055,-7056.6406,0
3.796250,1116.2109,-11034.6680,-11072.2656,1094.7266,0
3.812000,-13854.9805,15479.9805,14815.9180,-14457.0312,0
3.815906,1944.3359,-8563.9648,14433.1055,-6807.1289,0
3.819812,13108.3984,12986.8164,12933.1055,-4911.6211,0
3.823719,-14121.0938,15737.7930,14948.7305,-14472.6562,0
3.827625,-2930.6641,-4688.9648,15182.6172,-5806.1523,0
3.831531,9125.0000,-15019.5312,-1072.7539,3115.7227,0
3.835437,-13714.3555,15808.1055,15065.9180,-13917.9688,0
3.839344,944.3359,-3188.4766,-15566.8945,-306.6406,0
3.843250,-10880.3711,-15014.6484,6943.8477,-4898.4375,0
3.859000,-14027.3438,15800.2930,15159.6680,-14058.5938,0
3.862906,-2681.1523,-3063.4766,15808.1055,-2306.1523,0
3.866812,-2883.3008,-9011.7188,2934.5703,-6894.0430,0
3.870719,-14121.0938,15706.5430,15026.8555,-14417.9688,0
3.874625,-3930.1758,-2937.9883,-14440.9180,-5555.6641,0
3.878531,7125.0000,11000.0000,946.2891,-14883.7891,0
3.882437,-14066.4062,-15965.3320,15034.6680,-14120.6055,0
3.886344,-554.6875,-562.9883,-13064.9414,70.3125,0
3.890250,5128.9062,13000.9766,8953.6133,-2868.1641,0
3.922000,-13854.9805,-15761.7188,-12917.7930,603.7578,0
3.925906,694.3359,1437.0117,-12174.6679,-11153.2188,0
3.929812,-4885.2539,-1001.4648,14760.2148,-12416.5273,0
3.933719,-14034.6680,15917.9688,10935.7656,568.7812,0
3.937625,3696.7773,2437.9883,-8769.1314,-8920.3506,0
3.941531,15147.9492,15002.9297,-5799.6749,-9524.9951,0
3.945437,-13714.3555,-15980.9570,-2830.2185,-10129.6396,0
3.949344,7196.7773,-812.5000,139.2380,-10734.2842,0
3.953250,7139.1602,-6983.8867,3108.6945,-11338.9287,0
3.969000,-13792.4805,-15886.7188,15081.5430,-13776.8555,0
3.972906,3196.2891,1312.5000,-13065.9180,3446.2891,0
3.976812,1144.5312,2989.2578,-1047.3633,15146.4844,0
3.980719,-13815.9180,15925.7812,14987.7930,-13902.3438,0
3.984625,2071.2891,2313.4766,13183.1055,-1054.1992,0
3.988531,-4855.9570,13013.6719,-13058.1055,13146.9727,0
3.992437,-13847.1680,-15792.9688,15019.0430,-13683.1055,0
3.996344,4571.7773,4813.4766,15684.0820,5071.2891,0
4.000250,3145.0195,13012.2070,2948.7305,-10866.6992,0
4.031000,-13644.0430,-15964.8438,-3736.0935,-6613.3867,0
4.034906,4945.3125,187.5000,-385.0883,-8622.6022,0
4.038812,15130.8594,11002.4414,4595.4531,-10481.8735,0
4.042719,-13690.9180,-15816.4062,9575.9946,-12341.1449,0
4.046625,5571.2891,3562.9883,14556.5360,-14200.4162,0
4.047000,-13854.9805,-15800.7812,15034.6680,-14378.9062,0
4.050531,-12860.3516,-12978.0273,-11950.2617,-9002.5781,0
4.050906,2571.2891,1062.5000,-14815.9180,-8431.6406,0
4.054437,-13761.2305,-15652.3438,10282.0000,5601.5469,0
4.054812,-8855.4688,15012.6953,12947.2656,7091.7969,0
4.058344,6072.2656,3438.4766,14827.2148,-12374.2187,0
4.058719,-13698.7305,-15707.0312,15026.8555,-14441.4062,0
4.062250,7150.3906,9021.4844,-12177.4531,-3922.6953,0
4.062625,6696.7773,5687.9883,-15066.4062,-2805.6641,0
4.066531,5142.0898,11002.4414,-1059.5703,7107.4219,0
4.070437,-13847.1680,-15886.7188,15011.2305,-14332.0312,0
4.074344,2071.7773,3687.9883,-15941.4062,-4555.1758,0
4.078250,9163.0859,4992.1875,-13053.7109,-10865.7227,0
4.094000,-13456.5430,15980.4688,15190.9180,-13714.3555,0
4.097906,8196.7773,4188.9648,-14441.8945,4945.8008,0
4.101812,-8842.2852,11023.4375,12942.3828,-4854.9805,0
4.105719,-13667.4805,-15683.5938,14956.5430,-13776.8555,0
4.109625,570.3125,4813.4766,13433.1055,1070.8008,0
4.113531,-4867.6758,-4974.1211,-13069.3359,-6859.3750,0
4.117437,-14035.1562,-15628.9062,14948.7305,-13956.5430,0
4.121344,-1555.1758,5688.9648,-15566.8945,1320.8008,0
4.125250,5136.2305,13033.2031,14935.5469,-14854.9805,0
4.140000,-13644.0430,-15542.9688,15003.4180,-13651.8555,0
4.143906,2695.3125,2938.4766,14683.5938,2945.3125,0
4.147812,-14869.1406,11027.8320,-7060.0586,-2876.4648,0
4.151719,-13894.0430,-15738.2812,14862.7930,-14066.4062,0
4.155625,195.3125,4563.9648,14683.1055,-1556.1523,0
4.159531,3130.8594,-14972.6562,-1067.8711,-891.1133,0
4.163437,-14011.2305,-15746.0938,14831.5430,-14159.6680,0
4.167344,2945.8008,2188.4766,15433.1055,444.8242,0
4.171250,9106.9336,1011.7188,8917.9688,13104.4922,0
4.187000,-14261.7188,-15832.0312,14815.9180,-14316.4062,0
4.190906,-2680.1758,4313.4766,13808.1055,-3555.1758,0
4.194812,-4876.9531,15025.3906,8933.5938,5117.1875,0
4.198719,-14011.2305,-15621.0938,14956.5430,-14128.9062,0
4.202625,2569.8242,4812.9883,15807.6172,-2181.1523,0
4.206531,1111.3281,11013.6719,-11078.1250,-2882.8125,0
4.210437,-13972.1680,-15621.0938,14862.7930,-13956.5430,0
4.214344,1194.8242,5813.4766,15933.1055,1195.3125,0
4.218250,-881.3477,-975.0977,-3076.6602,9123.5352,0
4.250000,116.2187,-15574.2188,13193.5742,2162.9727,0
4.253906,-9340.1953,9189.4531,11324.5195,-3883.5391,0
4.257812,-12527.1250,7022.9492,14793.2617,-11855.8086,0
4.261719,-1083.5547,-15597.6562,10852.7226,4400.0859,0
4.265625,-4985.3208,6813.4766,-10777.3707,4693.3129,0
4.269531,-6109.0645,-964.8438,-7598.7366,18.5527,0
4.273438,-7232.8083,-15347.6562,-4420.1026,-4656.2074,0
4.277344,-8356.5520,4938.4766,-1241.4685,-9330.9675,0
4.281250,-9480.2957,-12986.8164,1937.1655,-12560.7928,0
4.297000,-14011.2305,-15808.5938,14753.4180,6706.7148,0
4.300906,945.3125,5563.4766,14183.1055,-11125.8633,0
4.304812,-10864.2578,-10973.6328,8937.0117,-11736.5117,0
4.308719,-13855.4688,-15613.2812,15097.1680,6322.2773,0
4.312625,-305.6641,5438.9648,-14941.8945,4929.1262,0
4.316531,13108.3984,-12967.7734,-3065.9180,2629.3743,0
4.320437,-14050.2930,-15394.5312,15104.9805,329.6225,0
4.324344,2696.2891,10439.9414,-13941.4062,-1970.1293,0
4.328250,11124.0234,3032.7148,-11060.5469,-4269.8811,0
4.344000,-14246.0938,-15503.9062,15050.2930,-13542.4805,0
4.347906,-4180.6641,6812.9883,-12940.9180,6695.8008,0
4.351812,3113.7695,-4978.0273,-11053.7109,-858.8867,0
4.355719,-14300.7812,-15621.0938,15011.2305,-13925.2930,0
4.359625,-6431.6406,4188.4766,-14690.4297,1195.8008,0
4.363531,-893.5547,-12979.4922,10953.1250,-10868.1641,0
4.367437,-14332.0312,-15667.9688,15269.0430,-13776.8555,0
4.371344,-4181.1523,8814.4531,-9440.9180,7070.8008,0
4.375250,-2904.7852,-4966.7969,-3051.7578,-2869.6289,0
4.390000,-14480.4688,-15464.8438,-10122.3239,-1316.4845,0
4.393906,-5180.6641,7313.9648,5130.8982,9525.2733,0
4.397812,7110.3516,13032.7148,14166.7773,-9771.1521,0
4.401719,-14324.2188,-15417.9688,-9599.8239,2164.3357,0
4.405625,-5806.1523,9064.4531,10261.4645,6826.2500,0
4.409531,-8895.9961,3027.3438,14989.6647,2774.8414,0
4.413437,-14472.6562,-15652.3438,15045.3714,-2417.8699,0
4.417344,-6056.6406,5563.9648,15101.0781,-7610.5811,0
4.421250,-6910.6445,-4977.5391,15156.7848,-12803.2924,0
4.437000,-14457.0312,-15527.3438,-7928.1642,5555.1563,0
4.440906,-5057.1289,11063.9648,-7888.2031,12521.5820,0
4.444812,-14914.0625,13017.5781,11620.0587,-9290.6056,0
4.448719,-14433.5938,-15628.9062,-9911.9142,4820.5665,0
4.452625,-6932.1289,7564.9414,-9941.2304,-1039.0625,0
4.456531,-10917.4805,11040.5273,-3995.7275,-5016.5812,0
4.460437,-14691.4062,-15503.9062,2005.3362,-7628.8617,0
4.464344,-10807.1289,7938.9648,8006.4000,-10241.1422,0
4.468250,5083.9844,-6967.2852,14007.4637,-12853.4226,0
4.469000,-14941.4062,-15488.2812,15159.6680,-13354.9805,0
4.472906,13565.9180,6438.9648,-15191.4062,7947.7539,0
4.476812,11059.0820,-4971.6797,4935.0586,1169.4336,0
4.480719,-15105.4688,-15675.7812,14995.6055,-13190.9180,0
4.484625,-15808.5938,5063.4766,-15441.4062,13573.2422,0
4.488531,15075.6836,-6976.5625,-5052.2461,-12810.0586,0
4.492437,-14636.7188,-15636.7188,15089.3555,-12870.6055,0
4.496344,-10432.6172,6813.9648,-14690.9180,14948.2422,0
4.500250,13081.0547,-6963.8672,10958.0078,-12812.5000,0
4.515000,-14644.5312,-15511.7188,15323.7305,-12901.8555,0
4.518906,-10058.5938,5938.9648,-12690.9180,15823.2422,0
4.522812,-949.2188,1025.8789,-9053.7109,13180.6641,0
4.526719,-15324.2188,-15496.0938,15175.2930,-12886.2305,0
4.530625,6813.9648,6563.9648,-12690.4297,-15676.2695,0
4.534531,7022.4609,-2967.7734,14961.9141,-2797.8516,0
4.538437,-15980.9570,-15660.1562,15214.3555,-12792.4805,0
4.542344,-2938.9648,5313.4766,-14065.9180,15823.7305,0
4.546250,12978.5156,13016.6016,12950.1953,-10812.0117,0
4.562000,15589.3555,-15605.4688,15175.2930,-13112.7930,0
4.565906,-7313.9648,7313.9648,-11940.9180,9822.7539,0
4.569812,12979.0039,7021.4844,-15057.6172,3159.1797,0
4.573719,15729.9805,-15652.3438,15151.8555,-13581.5430,0
4.577625,-1562.5000,5813.4766,-14690.9180,8572.2656,0
4.581531,15017.0898,-969.2383,2947.2656,-4838.3789,0
4.585437,-15542.9688,-15449.2188,15050.2930,-13519.0430,0
4.589344,9063.9648,7313.9648,-13440.9180,8446.7773,0
4.593250,13023.4375,-10979.9805,-9059.5703,15144.0430,0
4.625000,6654.0742,-15652.3438,-7424.5039,8650.0898,0
4.628906,-9606.9375,7938.9648,2343.8242,-272.0820,0
4.632812,-13420.7031,-10968.7500,12892.7461,-11847.3711,0
4.636719,4496.6836,-15535.1562,-10305.5703,4693.7578,0
4.640625,-14974.8574,5938.4766,-8746.7358,784.0983,0
4.644531,-15023.2169,-10986.3281,-5737.2701,-2909.3764,0
4.648438,-15071.5765,-15785.1562,-2727.8043,-6602.8510,0
4.652344,-15119.9360,6438.9648,281.6614,-10296.3257,0
4.656250,-15168.2956,13022.4609,3291.1271,-12532.6678,0
4.672000,-15363.2812,-15675.7812,15425.2930,-1692.3164,0
4.675906,12063.9648,6688.9648,-8814.4531,-9338.7813,0
4.679812,-6971.1914,-12982.9102,4971.1914,-12205.4023,0
4.683719,-15246.0938,-15722.6562,15448.7305,2127.7344,0
4.687625,-14807.1289,4312.9883,-11940.9180,-1015.2290,0
4.691531,1104.9805,-989.2578,-5038.5742,-2603.1042,0
4.695437,-14152.3438,-15832.0312,15386.2305,-4190.9795,0
4.699344,-4180.6641,3813.9648,-11315.4297,-5778.8547,0
4.703250,5109.3750,1027.3438,-9035.6445,-7366.7300,0
4.719000,-14159.6680,-15605.4688,15487.7930,-13769.0430,0
4.722906,1570.3125,7938.9648,-7063.9648,6946.7773,0
4.726812,-6890.1367,9023.4375,2972.6562,11142.0898,0
4.730719,-14832.0312,-15660.1562,15347.1680,-13831.5430,0
4.734625,15065.4297,8815.4297,-10690.4297,1194.8242,0
4.738531,-12956.0547,7038.5742,8953.1250,-876.4648,0
4.742437,-15582.5195,-15441.4062,15690.9180,-13996.0938,0
4.746344,-2940.4297,9064.4531,-2814.4531,-6558.1055,0
4.750250,-3067.8711,-12965.8203,14974.1211,-2939.4531,0
4.765000,10820.2344,-15464.8438,3240.6252,-768.1834,0
4.768906,-11122.4997,8439.4531,9378.2030,5232.1288,0
4.772812,8112.1481,1027.8320,-11386.4059,14434.8241,0
4.776719,-10548.1247,-15628.9062,4479.7654,1643.8869,0
4.780625,-8432.2462,5563.4766,8919.8437,2343.3593,0
4.784531,-3022.9289,9020.5078,3945.6381,5649.1495,0
4.788437,1938.9629,-15535.1562,-2113.3122,8812.1996,0
4.792344,6900.8547,8689.4531,-8172.2625,11975.2497,0
4.796250,11862.7465,1016.6016,-14231.2128,15138.2998,0
4.797000,12815.4297,-15792.9688,-15394.5312,15745.6055,0
4.800906,13300.7812,4688.9648,10064.9414,-5062.9883,0
4.804812,8820.8008,13019.0430,15033.6914,-8987.3047,0
4.808719,13541.9922,-15730.4688,-15214.8438,-15605.4688,0
4.812625,-1822.2656,6812.9883,-12433.5938,7562.9883,0
4.816531,-3142.5781,2993.1641,11055.1758,7004.3945,0
4.820437,13956.5430,-15980.4688,-15214.8438,-15792.9688,0
4.824344,4306.6406,2562.5000,11815.4297,8940.4297,0
4.828250,-7087.8906,-1002.9297,-2944.8242,13041.9922,0
4.844000,14823.7305,-15878.9062,-15042.9688,-15144.5312,0
4.847906,13433.5938,2937.5000,15190.9180,15066.4062,0
4.851812,6968.7500,1005.8594,15057.6172,3079.1016,0
4.855719,15503.4180,-15707.5195,-15175.7812,-14800.7812,0
4.859625,-6813.9648,-438.4766,13690.4297,-12057.1289,0
4.863531,-981.9336,-14994.6289,-4951.1719,-14879.3945,0
4.867437,-15285.1562,-15808.5938,-15285.1562,-13777.3438,0
4.871344,6815.4297,1187.0117,10565.4297,-929.1992,0
4.875250,5095.2148,3002.4414,-6940.9180,-4822.2656,0
4.890000,-14316.4062,-15816.4062,-15285.1562,-13073.7305,0
4.893906,-7806.1523,562.9883,9064.4531,14199.7070,0
4.897812,-14857.9102,-10968.7500,-14965.8203,-10776.3672,0
4.901719,-13464.3555,-15496.0938,-15503.9062,-12276.8555,0
4.905625,6697.2656,5688.9648,4062.9883,-5923.3398,0
4.909531,-8822.7539,-6962.8906,5004.8828,-12758.7891,0
4.913437,-13222.1680,-15410.1562,15933.1055,-12198.7305,0
4.917344,15199.7070,9439.9414,-2563.9648,-920.8984,0
4.921250,-4808.5938,-14963.8672,-7024.9023,3256.8359,0
4.937000,-12878.4180,-15355.4688,15519.0430,-11995.6055,0
4.940906,-13425.2930,13940.9180,-11815.9180,-1672.3633,0
4.944812,5201.1719,15061.5234,951.6602,-8746.5820,0
4.948719,-12722.1680,-15144.5312,15237.7930,-11987.3047,0
4.952625,-8924.3164,11940.9180,-13190.9180,3203.6133,0
4.956531,-10788.5742,-12943.8477,14946.2891,15255.3711,0
4.960437,-12534.6680,-15238.2812,15167.4805,-11877.9297,0
4.964344,-8173.8281,13565.4297,-11314.9414,1828.1250,0
4.968250,15218.2617,-10959.4727,4964.8438,15252.9297,0
5.000000,-11820.0469,-15472.6562,-7153.7851,1343.9062,0
5.003906,7037.0976,9064.4531,5957.1758,-7252.4297,0
5.007812,-11156.7617,-12963.8672,13048.8398,-10922.6055,0
5.011719,6448.0273,-15394.5312,-7107.6406,-1829.6399,0
5.015625,-8899.0911,10564.4531,9040.8714,-13598.5952,0
5.019531,-9490.8197,9025.8789,9832.8266,-5449.6681,0
5.023438,-10082.5484,-15542.9688,10624.7818,-14416.8750,0
5.027344,-10674.2770,6438.9648,11416.7370,-12097.0898,0
5.031250,-11266.0056,15034.1797,12208.6922,-9636.7578,0
5.047000,-13651.8555,-15433.5938,15401.8555,10650.1100,0
5.050906,2570.3125,7063.4766,-7439.4531,7744.3920,0
5.054812,-4879.3945,-8983.8867,-7032.7148,4838.6740,0
5.058719,-14285.1562,-15761.7188,15394.0430,1932.9560,0
5.062625,-6181.6406,3937.9883,-9189.9414,-972.7620,0
5.066531,-10897.4609,7006.3477,12971.1914,-3878.4800,0
5.070437,-14402.3438,-15746.0938,15542.4805,-6784.1979,0
5.074344,-9182.6172,3687.9883,-8565.4297,-9689.9159,0
5.078000,-14394.5312,-15667.9688,15487.7930,-12409.6680,0
5.078250,-897.9492,13019.0430,4954.5898,-12186.6680,0
5.081906,-11183.1055,3062.9883,-8189.9414,-8925.2930,0
5.085812,-4928.2227,13005.8594,-3036.6211,-2803.7109,0
5.089719,-14761.7188,-15878.9062,15409.6680,-13011.2305,0
5.093625,-7682.6172,3562.9883,-6439.4531,-12424.8047,0
5.097531,-4949.7070,11002.9297,-9039.5508,1178.2227,0
5.101437,-15246.0938,-15910.1562,15362.7930,-13206.5430,0
5.105344,13565.4297,2813.4766,-9314.9414,13698.2422,0
5.109250,-4950.1953,3006.8359,-9038.5742,-824.7070,0
5.125000,-15261.7188,-15933.5938,15354.9805,-13269.0430,0
5.128906,12689.9414,2937.9883,-7939.4531,12323.2422,0
5.132812,-10968.2617,11009.7656,10974.6094,-2828.1250,0
5.136719,-15527.3438,-15808.5938,15651.8555,-13206.5430,0
5.140625,6563.9648,2312.5000,-8189.9414,14948.7305,0
5.144531,7030.2734,10997.0703,-7028.3203,13187.0117,0
5.148438,-15488.2812,15949.2188,15519.0430,-12854.9805,0
5.152344,8562.9883,3188.4766,-7314.4531,-12050.2930,0
5.156250,-7001.9531,-6997.5586,14956.5430,9184.0820,0
5.172000,15987.7930,15972.6562,15269.0430,-13159.6680,0
5.175906,-1187.9883,1062.5000,-7438.9648,15449.2188,0
5.179812,-14999.0234,3009.7656,4975.0977,-14811.5234,0
5.183719,15722.1680,-15996.0938,15472.1680,-13151.8555,0
5.187625,-4187.9883,688.4766,-7564.4531,14824.2188,0
5.191531,991.2109,3007.8125,-11027.3438,3180.1758,0
5.195437,15948.7305,-15917.9688,15628.4180,-13112.7930,0
5.199344,-1938.4766,2187.9883,-6939.9414,15323.7305,0
5.203250,10991.6992,7011.2305,-9032.7148,9190.9180,0
5.219000,-15917.9688,-15847.6562,15339.3555,-12909.6680,0
5.222906,6438.4766,4563.4766,-8939.4531,15573.2422,0
5.226812,6995.6055,9001.4648,14973.6328,-12838.3789,0
5.230719,15925.2930,-15918.4570,15690.9180,-13315.9180,0
5.234625,-4188.9648,-1187.9883,-7564.4531,9072.2656,0
5.238531,-13020.0195,-6981.4453,14975.0977,13166.9922,0
5.242437,15487.7930,-15855.4688,15331.5430,-13401.8555,0
5.246344,-6314.9414,1937.5000,-9939.9414,8570.8008,0
5.250250,6950.1953,-8994.6289,14965.3320,-8868.6523,0
5.265000,15198.7305,-15886.7188,15417.4805,-13949.2188,0
5.268906,-12940.4297,312.5000,-11815.4297,-3805.6641,0
5.272812,12953.6133,1006.8359,-9032.7148,11118.1641,0
5.276719,15253.4180,-15894.5312,15519.0430,-14136.2305,0
5.280625,-9189.4531,1562.5000,-7689.4531,445.8008,0
5.284531,10965.3320,-7000.4883,6972.6562,5133.3008,0
5.288437,15315.9180,-15894.5312,15534.6680,-13839.3555,0
5.292344,-12690.9180,2812.5000,-8439.9414,2696.2891,0
5.296250,12951.6602,15002.4414,4967.2852,9145.9961,0
5.312000,15097.1680,-15917.9688,15519.0430,-13839.3555,0
5.315906,15683.1055,1562.9883,-6313.9648,2820.3125,0
5.319812,-15060.5469,-14989.7461,4961.9141,15114.2578,0
5.323719,15136.2305,-15895.0195,15323.7305,-14120.6055,0
5.327625,-13566.4062,-62.9883,-9689.9414,945.3125,0
5.331531,-5056.1523,-981.4453,-11028.8086,-4862.7930,0
5.335437,15495.6055,-15652.3438,15573.7305,-13565.9180,0
5.339344,-6689.4531,3312.5000,-8565.4297,6696.7773,0
5.343250,6981.9336,-4990.7227,12960.9375,15165.0391,0
5.375000,15698.7305,-15660.1562,15440.9180,-13151.8555,0
5.378906,-7939.4531,4813.9648,-9439.9414,12697.7539,0
5.382812,-15000.4883,7029.7852,-13022.9492,-14817.8711,0
5.386719,-15723.1445,-15621.0938,15737.7930,-12940.9180,0
5.390625,-2314.4531,4062.5000,-8440.4297,11572.2656,0
5.394531,-5013.1836,-8990.7227,-15038.0859,15169.9219,0
5.398438,15847.1680,-15769.5312,15331.5430,-13206.5430,0
5.402344,-437.0117,4938.4766,-9439.9414,15949.7070,0
5.406250,3004.3945,-985.8398,-3040.0391,-14811.0352,0
5.422000,15964.3555,-15761.7188,15292.4805,-13932.3750,0
5.425906,-312.5000,3687.9883,-10814.9414,-12840.4922,0
5.429812,11008.7891,-10981.9336,-7027.8320,-10465.4961,0
5.433719,-15832.0312,-15722.6562,15589.3555,12721.8516,0
5.437625,4438.9648,5438.9648,-3938.9648,831.8917,0
5.441531,-10995.6055,15018.0664,-5028.3203,-2724.8593,0
5.445437,15933.1055,-15613.2812,15698.7305,-6281.6104,0
5.449344,-1063.9648,7188.4766,-4814.9414,-9838.3615,0
5.453250,-9014.6484,7010.2539,14955.0781,-13280.0117,0
5.469000,299.1055,-15808.5938,15206.5430,13660.7422,0
5.472906,-2424.1836,7313.9648,-11189.4531,-1980.4922,0
5.476812,-14265.2656,15022.4609,4977.5391,-10328.5429,0
5.480719,1947.9649,-15628.9062,15690.9180,12370.4258,0
5.484625,14262.9046,4938.4766,-6189.4531,-5038.6091,0
5.488531,6594.9998,5013.6719,-3020.9961,-7139.5990,0
5.492437,-1072.9050,-15761.7188,15745.6055,-9240.5890,0
5.496344,-8740.8098,1437.0117,-5814.9414,-11341.5789,0
5.500000,-15917.9688,-15996.0938,15456.5430,-13308.1055,0
5.500250,-14815.2188,14991.2109,-1033.2031,-11827.7931,0
5.503906,1312.5000,561.5234,-10815.4297,9821.7773,0
5.507812,11013.6719,-3000.4883,-11031.2500,7160.6445,0
5.511719,-15800.7812,-15878.9062,15347.1680,-13487.7930,0
5.515625,1313.4766,3187.9883,-11939.9414,7322.2656,0
5.519531,3024.4141,-989.7461,4968.7500,7159.6680,0
5.523438,-15558.5938,-15730.4688,15487.7930,-13237.7930,0
5.527344,6812.9883,5812.9883,-8189.9414,12822.7539,0
5.531250,-982.9102,-6988.7695,-3038.5742,-12825.6836,0
5.562000,-15707.0312,-15855.4688,-2076.0938,8416.8165,0
5.565906,2187.9883,1312.0117,-56.5625,13070.6836,0
5.569812,-8976.5625,-5000.9766,13158.1836,-9065.7618,0
5.573719,-15480.4688,-15792.9688,-4612.7540,8643.4767,0
5.577625,11939.4531,6562.9883,-13983.2031,6375.9961,0
5.581531,-6968.7500,-8993.6523,-8679.3009,1242.7165,0
5.585437,-15339.8438,-15769.5312,-1108.1562,-3406.3701,0
5.589344,12690.9180,5188.9648,6462.9885,-8055.4567,0
5.593250,1047.3633,7014.6484,14034.1332,-12704.5433,0
5.594000,-15152.3438,-15941.4062,15487.7930,-13597.1680,0
5.597906,14689.9414,1187.9883,-6939.9414,7070.8008,0
5.601812,-4955.5664,-10986.3281,-13030.2734,-4856.4453,0
5.605719,-15050.7812,-15886.7188,15698.7305,-13651.8555,0
5.609625,-15809.0820,1313.4766,-5814.4531,3945.8008,0
5.613531,3049.3164,-14967.2852,8966.3086,7128.4180,0
5.617437,-15230.4688,-15488.2812,15519.0430,-13917.4805,0
5.621344,12814.9414,6312.9883,-4438.9648,695.3125,0
5.625250,-2948.7305,1008.7891,-15022.4609,7131.8359,0
5.640000,-15082.0312,-15605.4688,15581.5430,-13956.5430,0
5.643906,13189.9414,6188.4766,-8564.4531,70.3125,0
5.647812,-2947.7539,15022.4609,10978.0273,-8861.3281,0
5.651719,-15128.9062,-15660.6445,15714.3555,-13675.2930,0
5.655625,9438.4766,-937.9883,-4813.9648,1944.8242,0
5.659531,-14981.4453,15017.0898,972.6562,1122.5586,0
5.663437,-15644.5312,-15597.6562,15542.4805,-13956.5430,0
5.667344,6814.4531,8814.4531,-6314.4531,1070.8008,0
5.671250,5033.2031,7030.7617,-9024.9023,-10859.3750,0
5.687000,-15777.3438,-15628.9062,15581.5430,-14019.0430,0
5.690906,3063.9648,3187.9883,-5939.4531,570.8008,0
5.694812,15026.8555,-4980.4688,-7028.3203,15138.1836,0
5.698719,-15410.1562,-15746.0938,15761.2305,-13683.1055,0
5.702625,7188.4766,3437.9883,-3563.9648,569.8242,0
5.706531,1039.5508,13013.1836,6977.0508,-12863.2812,0
5.710437,-15332.0312,-15441.4062,15581.5430,-13832.0312,0
5.714344,4687.9883,8688.9648,-8439.4531,-179.6875,0
5.718250,-6981.4453,-6969.7266,-5016.6016,7135.2539,0
5.750000,9965.0977,-15667.9688,-7603.1445,4177.8437,0
5.753906,6646.1367,4688.4766,-12073.6250,-14713.9727,0
5.757812,-14223.6250,-14977.5391,13666.6523,-11719.5586,0
5.761719,-119.4297,-15730.4688,-4858.4531,3497.6015,0
5.765625,-3151.8574,4438.9648,3117.4509,-14820.0451,0
5.769531,-4728.6190,-6969.2383,4686.7633,-14481.5664,0
5.773438,-6305.3805,-15550.7812,6256.0756,-14143.0877,0
5.777344,-7882.1421,7938.9648,7825.3880,-13804.6090,0
5.781250,-9458.9036,5029.2969,9394.7004,-12123.9802,0
5.797000,-15816.4062,-15402.3438,15722.1680,6818.9648,0
5.800906,2187.5000,6563.4766,-3564.4531,-11153.1758,0
5.804812,-4996.5820,11011.7188,-5030.2734,-12275.2930,0
5.808719,15941.4062,-15964.8438,15573.7305,4003.0820,0
5.812625,1437.0117,6314.4531,-6689.9414,14792.7015,0
5.816531,-7001.4648,7019.5312,14954.5898,11214.2752,0
5.820437,-15824.2188,-15738.2812,15276.8555,7635.8489,0
5.824344,3687.9883,5438.9648,-8064.9414,4057.4226,0
5.828250,7007.3242,15037.1094,-13040.5273,478.9962,0
5.844000,-15926.2695,-15410.1562,15472.1680,-13949.2188,0
5.847906,-2938.4766,4812.9883,-8064.9414,-5056.6406,0
5.851812,8992.1875,-2987.3047,-15040.0391,9104.9805,0
5.855719,15776.8555,-15660.1562,15456.5430,-14207.0312,0
5.859625,-3687.9883,8439.4531,-5939.4531,-3180.6641,0
5.863531,2999.0234,11029.2969,-7028.3203,-6886.7188,0
5.867437,15839.3555,-15746.0938,15550.2930,-14316.4062,0
5.871344,-6438.9648,3188.4766,-8439.9414,-8806.6406,0
5.875000,15667.4805,-15910.1562,15542.4805,-14582.0312,0
5.875250,-11008.7891,13018.5547,6966.7969,7100.5859,0
5.878906,-9315.4297,813.4766,-7939.9414,-11682.1289,0
5.882812,-7042.4805,1018.0664,-7035.1562,1089.3555,0
5.886719,15417.4805,-15902.3438,15597.1680,-14457.0312,0
5.890625,-3188.9648,3188.9648,-2439.4531,-431.1523,0
5.894531,14960.4492,-2963.8672,8964.8438,-8923.3398,0
5.898438,15581.5430,-15238.2812,15644.0430,-14699.2188,0
5.902344,-4937.9883,8688.4766,-7439.9414,-11057.6172,0
5.906250,-13003.4180,-10976.5625,6966.7969,-10919.9219,0
5.922000,15839.3555,-15441.4062,15511.2305,-14730.4688,0
5.925906,-1438.4766,12064.4531,-10440.4297,-10307.1289,0
5.929812,-3001.4648,-2961.9141,-15033.6914,9098.1445,0
5.933719,15878.4180,-15472.6562,15479.9805,-14433.5938,0
5.937625,-3437.9883,5063.9648,-10190.4297,-5555.1758,0
5.941531,-9003.4180,7028.3203,2958.9844,-14875.9766,0
5.945437,-15863.2812,-15488.2812,15472.1680,-13870.6055,0
5.949344,4062.0117,8813.4766,-8690.4297,1694.8242,0
5.953250,2990.7227,15023.4375,-1035.1562,13124.0234,0
5.969000,-15980.9570,-15324.2188,15519.0430,-13980.4688,0
5.972906,-2563.9648,9938.4766,-9689.9414,-1680.6641,0
5.976812,-1010.7422,-14980.4688,8967.2852,-880.3711,0
5.980719,15996.0938,-15378.9062,15511.2305,-14019.0430,0
5.984625,312.5000,8689.4531,-6313.9648,2320.8008,0
5.988531,2999.0234,9040.0391,8977.5391,3125.0000,0
5.992437,15988.2812,-15457.0312,15495.6055,-13979.9805,0
5.996344,6939.4531,9314.4531,-7939.4531,3571.2891,0
6.000250,-2971.1914,-10961.9141,-9021.4844,-10858.8867,0
6.015000,-15730.9570,-15441.4062,15628.4180,-13996.0938,0
6.018906,-62.0117,5563.4766,-9314.9414,-3431.1523,0
6.022812,3014.1602,-2976.0742,958.4961,-8903.3203,0
6.026719,-15730.4688,-15535.1562,15464.3555,-14472.6562,0
6.030625,6438.9648,10189.9414,-5814.4531,-5181.1523,0
6.034531,11023.9258,-14964.3555,-7021.4844,-12899.9023,0
6.038437,-15574.2188,-15472.6562,15737.7930,-14441.4062,0
6.042344,5812.9883,9939.4531,-4439.4531,-6681.6406,0
6.046250,-2984.8633,-970.7031,-13024.9023,13093.2617,0
6.062000,-15824.2188,-15675.7812,15698.7305,-14480.4688,0
6.065906,3313.9648,5063.4766,-4187.9883,-9182.1289,0
6.069812,3011.7188,5016.1133,-15005.8594,-6912.1094,0
6.073719,15776.8555,-15589.8438,15612.7930,-14886.7188,0
6.077625,-5563.4766,7438.9648,-9064.9414,-15058.1055,0
6.081531,14986.3281,13030.7617,4959.4727,3068.3594,0
6.085437,15550.2930,-15402.3438,15448.7305,-15144.5312,0
6.089344,-5813.4766,8813.9648,-4938.4766,14191.4062,0
6.093250,4985.8398,-6975.0977,8980.9570,9065.4297,0
6.125000,15722.1680,-15597.6562,15667.4805,-5906.7344,0
6.128906,-4938.4766,6188.9648,-5813.9648,-7573.7539,0
6.132812,-9006.8359,13029.2969,-13017.5781,-13606.7656,0
6.136719,15651.8555,-15675.7812,15581.5430,-8486.7663,0
6.140625,-6688.9648,4813.9648,-2437.5000,-1720.7031,0
6.144531,-11022.9492,-968.2617,-13007.3242,-8928.3984,0
6.148438,15503.4180,-15511.7188,15878.4180,-9788.1251,0
6.152344,-9314.9414,5438.4766,-2439.4531,-13480.2343,0
6.156250,12966.3086,11024.9023,-9023.9258,-8933.8477,0
6.172000,15347.1680,-15589.8438,15714.3555,12653.6220,0
6.175906,-12565.9180,6312.9883,-5563.4766,10384.1767,0
6.179812,-7017.0898,-10985.8398,-15002.4414,8114.7314,0
6.183719,15917.4805,-15433.5938,15901.8555,5845.2861,0
6.187625,-5938.9648,10313.9648,-1438.4766,3575.8408,0
6.191531,-15015.1367,-6975.5859,-7012.2070,1306.3955,0
6.195437,15964.3555,-15480.4688,15979.9805,-963.0498,0
6.199344,-3063.9648,6438.4766,-62.9883,-3232.4950,0
6.203250,8999.0234,3024.9023,-997.0703,-5501.9403,0
6.234000,15878.4180,-15457.0312,-1299.4337,-13755.2734,0
6.237906,-3562.5000,9814.4531,6812.5391,5464.1993,0
6.241812,3008.3008,-8970.2148,14636.7774,-10794.9220,0
6.245719,15979.9805,-15660.1562,-1318.6134,-12041.1133,0
6.249625,-3313.4766,4438.4766,13739.7962,-14320.8634,0
6.253531,14998.5352,1025.3906,-2664.9514,-9024.2889,0
6.257437,-15871.5820,-15425.7812,-3032.6953,13.5195,0
6.261344,-1813.4766,5688.4766,14115.2461,-12879.1719,0
6.265000,-15925.7812,-15746.5820,-759.0232,-9696.1133,0
6.265250,-4989.7461,3030.2734,-2030.8047,-9340.5195,0
6.268906,687.5000,-1312.0117,-9875.8984,-8891.6211,0
6.272812,-999.5117,5020.5078,11596.4645,-13536.3281,0
6.276719,-15832.0312,-15535.1562,1125.5666,-6134.8634,0
6.280625,1562.0117,8189.4531,-11205.8202,-13257.3632,0
6.284531,4993.1641,1027.8320,-7034.1594,-14825.7446,0
6.288437,-15988.2812,-15457.0312,90.1208,-14720.0230,0
6.292344,1312.0117,8938.4766,7214.4010,-14614.3014,0
6.296250,8991.2109,-12975.0977,14338.6812,-14508.5798,0
6.297000,15925.7812,-15574.2188,15706.5430,-14488.2812,0
6.300906,1687.5000,8313.9648,-1187.5000,-4806.6406,0
6.304812,-3003.9062,-984.3750,10988.2812,-912.5977,0
6.308719,15972.1680,-15683.5938,15737.7930,-14550.7812,0
6.312625,-1687.9883,7689.4531,-5188.9648,-11057.6172,0
6.316531,-2997.5586,-971.6797,-11012.6953,-4916.9922,0
6.320437,15925.2930,-15730.4688,15745.6055,-14824.2188,0
6.324344,-937.9883,5563.4766,-3313.4766,-11933.1055,0
6.328250,-2984.8633,-4976.0742,14990.7227,-6921.3867,0
6.344000,-15558.5938,-15574.2188,15808.1055,-14738.2812,0
6.347906,8314.9414,4938.4766,-4063.4766,-12307.6172,0
6.351812,3043.9453,1012.6953,12984.3750,5079.5898,0
6.355719,-15042.9688,-15613.2812,15761.2305,-14667.9688,0
6.359625,15690.4297,6937.9883,-3438.9648,-11183.1055,0
6.363531,-4932.1289,-14988.7695,-11020.9961,5073.2422,0
6.367437,-14699.2188,-15878.9062,15519.0430,-14777.3438,0
6.371344,-11057.6172,4814.4531,-6438.4766,-12182.6172,0
6.375250,11085.9375,-6972.1680,-13013.1836,7082.5195,0
6.390000,-14628.9062,-15652.3438,15761.2305,-14605.4688,0
6.393906,-12057.6172,6813.9648,-8314.9414,-10557.6172,0
6.397812,9082.0312,-6978.5156,-11017.5781,-12911.1328,0
6.401719,-14636.7188,-15730.4688,15659.6680,-14527.3438,0
6.405625,-9182.1289,7439.4531,-5063.4766,-6806.1523,0
6.409531,-10897.4609,3027.8320,14986.8164,-4883.7891,0
6.413437,-14152.3438,-15480.4688,15854.9805,-14167.9688,0
6.417344,-1681.1523,8438.9648,-688.4766,-3681.6406,0
6.421250,-14910.6445,-6978.5156,-7023.4375,-6911.6211,0
6.437000,-14644.5312,-15730.4688,15487.7930,-14652.3438,0
6.440906,-11057.6172,4688.4766,-7564.9414,-10932.1289,0
6.444812,1093.2617,-8976.5625,-1030.7617,13100.0977,0
6.448719,-14378.9062,-15589.8438,15636.2305,-14269.5312,0
6.452625,-9307.6172,5938.9648,-3812.9883,-4430.6641,0
6.456531,7072.7539,5025.8789,10983.8867,-12877.4414,0
6.460437,-14964.8438,-15707.0312,15612.7930,-14074.2188,0
6.464344,15691.4062,4313.4766,-4938.9648,-1555.1758,0
6.468250,5072.2656,-14980.4688,8995.6055,-10862.3047,0
6.500000,14858.6133,-15425.7812,-4087.6484,330.4219,0
6.503906,4872.9922,9188.4766,11439.9102,-14805.4492,0
6.507812,-13136.9375,9007.8125,13832.6211,-13024.9375,0
6.511719,6879.0703,-15839.8438,-2968.2266,-3736.2530,0
6.515625,-9059.9086,6813.9648,4744.0618,927.1459,0
6.519531,-9867.0625,5021.4844,2169.5917,1527.7150,0
6.523438,-10674.2164,-15394.5312,-404.8784,8774.4528,0
6.527344,-11481.3703,7937.9883,-2979.3485,-12058.2811,0
6.531250,-12288.5242,-4981.4453,-5553.8186,371.4845,0
6.547000,-15542.9688,-15550.7812,-15934.0820,4846.8356,0
6.550906,8813.9648,6313.4766,-813.4766,3293.7945,0
6.554812,-2980.9570,15014.1602,-7011.2305,1740.7533,0
6.558719,-15675.7812,-15792.9688,15808.1055,187.7122,0
6.562625,5439.4531,4938.4766,-4688.4766,-1365.3290,0
6.566531,11048.3398,-14976.5625,-12997.0703,-2918.3701,0
6.570437,-15175.7812,-15613.2812,15972.1680,-4471.4113,0
6.574344,14441.4062,1812.9883,-2562.9883,-6024.4524,0
6.578250,5062.5000,9025.3906,-14998.5352,-7577.4936,0
6.594000,-15128.9062,-15566.4062,15854.9805,-13839.3555,0
6.597906,12565.4297,5939.4531,-6063.9648,2195.8008,0
6.601812,-6930.6641,7045.4102,-3001.9531,-4843.7500,0
6.605719,-14847.6562,-15441.4062,15917.9688,-13534.6680,0
6.609625,15940.9180,8313.9648,812.9883,8072.2656,0
6.613531,-2946.7773,11008.7891,990.7227,13145.0195,0
6.617437,-15285.1562,-15816.4062,15745.6055,-13729.9805,0
6.621344,-15808.5938,7939.9414,-2313.4766,8072.2656,0
6.625250,3032.2266,3034.6680,8982.9102,5138.6719,0
6.640000,-15347.6562,-15324.2188,15769.0430,-13729.9805,0
6.643906,10687.9883,9063.9648,-3688.4766,6946.2891,0
6.647812,-8986.8164,5023.9258,-3008.7891,11130.3711,0
6.651719,-15425.7812,-15535.1562,15940.9180,-13714.3555,0
6.655625,10315.4297,6813.4766,-1437.9883,6071.2891,0
6.659531,7049.8047,-972.1680,1005.3711,-8854.0039,0
6.663437,-15324.2188,-15597.6562,-15957.5195,-13792.4805,0
6.667344,11689.9414,7438.9648,-563.4766,3195.3125,0
6.671250,11036.6211,-8978.0273,10978.0273,11110.3516,0
6.672000,-15269.5312,-15542.9688,15831.5430,-14191.4062,0
6.675906,11189.4531,7313.4766,-312.9883,-2181.1523,0
6.679812,-8963.8672,-8980.9570,-15005.3711,-894.5312,0
6.683719,-15355.4688,-15496.0938,15972.1680,-14371.0938,0
6.687625,10814.9414,6938.9648,-1313.4766,-7932.1289,0
6.691531,3048.3398,11041.0156,-9012.2070,15088.3789,0
6.695437,-15199.2188,-15324.2188,15823.7305,-14433.5938,0
6.699344,12316.4062,8939.9414,-312.0117,-8808.1055,0
6.703250,15066.8945,3038.5742,15010.2539,-916.5039,0
6.719000,-15292.9688,-15503.9062,15956.5430,-14800.7812,0
6.722906,9939.9414,6063.9648,-937.5000,-14683.5938,0
6.726812,-948.7305,9036.6211,-4993.1641,-932.6172,0
6.730719,-15144.5312,-15566.4062,-15917.9688,-15035.1562,0
6.734625,13189.9414,7814.9414,2437.9883,-15433.5938,0
6.738531,-8963.8672,15037.5977,9000.9766,-6938.4766,0
6.742437,-15589.8438,-15394.5312,15784.6680,-15050.7812,0
6.746344,5063.4766,7563.9648,-3937.9883,14565.9180,0
6.750250,-4977.5391,-12967.2852,-8991.2109,9055.1758,0
6.765000,-15605.4688,-15496.0938,-15863.2812,-15230.4688,0
6.768906,9565.4297,9564.9414,3438.4766,14191.4062,0
6.772812,-8956.0547,11027.8320,-986.3281,-2937.0117,0
6.776719,-15300.7812,-15542.9688,-15808.5938,-15113.2812,0
6.780625,12440.4297,8813.4766,1561.5234,10813.9648,0
6.784531,1041.5039,-10974.6094,10989.7461,-12971.6797,0
6.788437,-15488.2812,-15621.0938,15940.9180,-15621.0938,0
6.792344,8939.4531,4188.9648,-1937.9883,3813.4766,0
6.796250,-12974.1211,15023.4375,-2993.1641,-6977.0508,0
6.812000,-15511.7188,-15636.7188,-15878.9062,-15707.0312,0
6.815906,9314.9414,9064.9414,62.5000,3062.5000,0
6.819812,7045.8984,15036.6211,11001.9531,-10995.1172,0
6.823719,-15355.4688,-15597.6562,15862.7930,-15902.3438,0
6.827625,10064.4531,4313.4766,-2812.9883,687.0117,0
6.831531,-4964.8438,1019.0430,2995.6055,-996.5820,0
6.835437,-15355.4688,-15691.4062,15933.1055,-15878.9062,0
6.839344,11564.9414,5688.9648,-1437.9883,2813.4766,0
6.843250,-8959.9609,13032.7148,-3000.0000,-4978.5156,0
6.875000,12477.5117,-15410.1562,1294.8789,10998.2422,0
6.878906,-505.7774,5437.9883,7865.7031,-5886.4922,0
6.882812,-12241.5625,-12972.6562,14522.9531,-14601.7344,0
6.886719,15287.2578,-15347.6562,-61.9024,-12663.9248,0
6.890625,14661.0617,9439.4531,-12668.0629,-14161.0952,0
6.894531,10901.5724,3038.0859,-9118.8326,-5427.8905,0
6.898438,7142.0831,-15464.8438,-5569.6022,1937.7342,0
6.902344,3382.5938,7938.4766,-2020.3718,-13830.7812,0
6.906250,-376.8955,-6989.7461,1528.8586,-7636.9530,0
6.922000,-15535.1562,-15558.5938,15839.3555,6599.6555,0
6.925906,11064.9414,8063.4766,-1562.9883,3960.1253,0
6.929812,5038.5742,-8975.5859,9001.4648,1320.5951,0
6.933719,-15371.0938,-15433.5938,-15973.1445,-1318.9351,0
6.937625,9939.4531,8688.9648,-562.5000,-3958.4653,0
6.941531,5031.7383,15034.1797,1002.9297,-6597.9955,0
6.945437,-15511.7188,-15519.5312,15964.3555,-9237.5258,0
6.949344,8064.4531,6063.9648,-1312.9883,-11877.0560,0
6.953250,1022.9492,-8972.6562,-15009.2773,-13905.0938,0
6.969000,-15558.5938,-15566.4062,15831.5430,11854.5039,0
6.972906,5437.9883,6563.4766,-1312.9883,-9585.6211,0
6.976812,-973.6328,-978.0273,-8996.5820,-13381.1406,0
6.980719,-15738.2812,-15699.2188,-15980.9570,5805.8398,0
6.984625,62.5000,4563.9648,-2688.4766,620.2799,0
6.988531,-12990.2344,-10972.6562,-3000.0000,-3553.8466,0
6.992437,15979.9805,-15800.7812,15995.6055,-7727.9731,0
6.996344,-1187.9883,3187.9883,-3314.4531,-11902.0996,0
7.000250,-15005.3711,-991.6992,-5012.6953,-14801.3321,0
7.015000,15996.0938,-15824.2188,-232.7732,488.0666,0
7.018906,937.9883,6188.9648,-1375.0782,-7975.2538,0
7.022812,9017.5781,9028.3203,13269.2186,11538.7302,0
7.026719,-15839.8438,-15558.5938,3344.8049,-3671.5036,0
7.030625,1062.9883,5563.4766,-7415.8983,11390.2341,0
7.034531,3004.8828,7007.3242,-10446.6553,15018.9412,0
7.038437,-15769.5312,-15894.5312,-12160.7259,15097.2939,0
7.042344,6687.9883,6188.9648,-13874.7965,15175.6466,0
7.046250,-986.3281,-10983.3984,-15588.8672,15253.9993,0
7.062000,-2287.2851,-15777.3438,2388.8867,-6623.1642,0
7.065906,-9194.1797,2687.9883,802.1289,4111.3868,0
7.069812,-15138.4375,-4987.3047,-13192.8907,14076.5430,0
7.073719,24.7852,-15980.4688,-390.6249,-3150.2540,0
7.077625,6377.4610,1562.9883,2930.8203,-5301.9727,0
7.081531,2243.7744,9000.9766,5704.9357,-764.7298,0
7.085437,-3428.8621,-15925.7812,8923.9347,4322.0176,0
7.089344,-9101.4986,3562.9883,12142.9337,9408.7650,0
7.093250,-14774.1350,-14989.2578,15361.9327,14495.5125,0
7.094000,-15863.2812,-15855.4688,15979.9805,15472.1680,0
7.097906,1562.9883,562.0117,-937.5000,-6939.4531,0
7.101812,13013.1836,-14993.1641,-2987.7930,8960.9375,0
7.105719,-15941.8945,-15667.9688,-15917.9688,15347.1680,0
7.109625,-687.5000,4062.5000,562.0117,-10440.4297,0
7.113531,-10975.0977,-10996.0938,-11014.1602,8956.0547,0
7.117437,-15457.0312,-15761.7188,15800.7812,15198.7305,0
7.121344,12315.9180,4062.5000,2187.9883,-12315.4297,0
7.125250,5051.2695,-4992.6758,8998.5352,6955.5664,0
7.140000,-15089.8438,-15824.2188,15956.5430,15331.5430,0
7.143906,11689.4531,1437.5000,-1562.9883,-12065.4297,0
7.147812,-14954.1016,13006.8359,15002.9297,6964.8438,0
7.151719,-15121.0938,-15973.1445,15964.3555,15753.4180,0
7.155625,14190.4297,-937.5000,-1437.0117,-2688.9648,0
7.159531,-2954.5898,-14990.2344,5008.7891,-13020.5078,0
7.163437,-15496.0938,-15753.9062,15948.7305,15604.9805,0
7.167344,6439.4531,1562.5000,-187.9883,-7189.9414,0
7.171250,3051.2695,5002.9297,-11011.7188,-3030.7617,0
7.187000,-15011.7188,-15917.9688,15972.6562,15628.4180,0
7.190906,-15683.5938,2687.9883,1812.9883,-2187.0117,0
7.194812,-8936.5234,-6995.1172,3012.2070,9009.2773,0
7.198719,-15113.2812,-15980.4688,-15917.9688,-15988.2812,0
7.202625,15691.4062,3187.9883,1812.9883,1187.9883,0
7.206531,-12945.8008,-2993.1641,6989.7461,-2996.5820,0
7.210437,-15410.1562,-15972.6562,15651.8555,15792.4805,0
7.214344,11190.4297,1937.5000,-3813.4766,-2187.9883,0
7.218250,-8970.2148,-7005.3711,-7017.0898,2974.1211,0
7.250000,9672.9687,15823.7305,658.1641,-5092.4336,0
7.253906,-7755.2539,-1062.0117,11460.6445,-4238.3633,0
7.257812,-12694.1094,13008.7891,14236.4492,-14097.1719,0
7.261719,10407.4570,-15816.4062,-1928.9961,2380.0664,0
7.265625,2822.6347,2062.5000,-2788.4435,2566.7783,0
7.269531,568.1787,9009.7656,-457.5734,-2068.0184,0
7.273438,-1686.2774,-15832.0312,1873.2968,-6702.8150,0
7.277344,-3940.7334,812.5000,4204.1669,-11337.6116,0
7.281250,-6195.1895,15007.8125,6535.0371,-14300.4685,0
7.297000,-15285.1562,-15941.8945,15933.1055,9832.2539,0
7.300906,10939.4531,-1938.9648,-4939.9414,-4120.8086,0
7.304812,-14953.6133,10988.2812,-1020.0195,-12307.1875,0
7.308719,-15230.4688,15956.5430,15862.7930,11585.4922,0
7.312625,10815.4297,-3813.9648,-1563.4766,-12970.1379,0
7.316531,7053.7109,4981.4453,-15016.1133,-13238.9089,0
7.320437,-15238.2812,15745.6055,15581.5430,-13507.6799,0
7.324344,11940.9180,-6439.9414,-6938.4766,-13776.4508,0
7.328250,11069.3359,-7033.2031,-11003.4180,-14045.2218,0
7.344000,-14863.2812,15308.1055,15792.4805,-15128.9062,0
7.347906,-13433.1055,-10814.4531,-5438.9648,14440.9180,0
7.351812,-2930.6641,8963.8672,-7013.6719,1048.8281,0
7.355719,-14972.6562,15331.5430,15808.1055,-15175.7812,0
7.359625,-13183.1055,-7563.9648,-3063.9648,15190.4297,0
7.363531,7062.9883,8983.8867,12981.4453,-2955.5664,0
7.367437,-15105.4688,15815.9180,15784.6680,-15300.7812,0
7.371344,12439.9414,-3063.4766,-4814.4531,11439.4531,0
7.375250,-4944.3359,2985.8398,-1020.5078,-4960.9375,0
7.390000,10023.0856,15698.7305,-931.9334,-15394.5312,0
7.393906,8295.5860,-6439.4531,-6553.6132,7814.4531,0
7.397812,-11540.3122,14968.2617,12003.4177,15032.2266,0
7.401719,8036.8356,15675.2930,-1228.1834,-15277.3438,0
7.405625,12961.7383,-3188.4766,-13320.8983,13314.9414,0
7.409531,7181.6203,10987.7930,-8559.1431,-4951.1719,0
7.413437,182.3169,15839.3555,-876.3428,-15136.7188,0
7.417344,-6816.9865,-3313.9648,6806.4575,13190.4297,0
7.421250,-13816.2900,-3012.6953,14489.2578,13061.0352,0
7.422000,-15160.1562,15769.0430,15964.3555,-15042.9688,0
7.425906,9815.4297,-4438.9648,-812.9883,12690.4297,0
7.429812,-10942.8711,-11012.2070,4986.8164,-6936.5234,0
7.433719,-15246.0938,15831.5430,15776.8555,-15011.7188,0
7.437625,12315.4297,-4938.4766,-4688.9648,13939.9414,0
7.441531,7049.8047,2993.1641,982.4219,11035.1562,0
7.445437,-15019.5312,15941.4062,15714.3555,-15253.9062,0
7.449344,-14558.5938,62.0117,-4313.4766,12815.4297,0
7.453250,15073.7305,4994.6289,8987.7930,11059.0820,0
7.469000,-14871.0938,15940.9180,15878.9062,-14980.4688,0
7.472906,-13432.6172,-2813.4766,687.5000,-14683.1055,0
7.476812,1073.2422,979.0039,2989.7461,5068.3594,0
7.480719,-14824.2188,15675.2930,15808.1055,-14902.3438,0
7.484625,-12557.6172,-3812.9883,-2313.4766,15690.4297,0
7.488531,11068.3594,6989.7461,8980.4688,-14948.2422,0
7.492437,-14949.2188,15886.7188,15862.7930,-15058.5938,0
7.496344,-13432.6172,437.0117,-312.9883,15690.9180,0
7.500250,1070.8008,4990.2344,8993.1641,3046.3867,0
7.515000,-14894.5312,15980.4688,15901.8555,-15074.2188,0
7.518906,-11683.1055,187.0117,-312.9883,-14308.5938,0
7.522812,-2920.8984,-11002.9297,-11002.9297,-925.2930,0
7.526719,-14660.1562,-15996.5820,15987.7930,-14832.0312,0
7.530625,-11307.6172,-312.5000,-1687.9883,-15558.5938,0
7.534531,9076.6602,12993.6523,12996.5820,3062.5000,0
7.538437,-14925.7812,15714.3555,15925.2930,-15136.7188,0
7.542344,15815.9180,-1937.9883,-2813.4766,13065.4297,0
7.546250,9058.5938,12994.1406,14989.7461,-946.2891,0
7.578000,-14964.8438,15917.4805,-1442.1797,-15500.0195,0
7.581906,-14933.1055,-62.0117,-3004.6758,-14975.1133,0
7.585812,13056.6406,-6998.0469,13997.8242,-12921.4687,0
7.589719,-15175.7812,15910.1562,-2936.1680,7061.8906,0
7.593625,-14809.0820,2312.5000,3280.0060,-13031.2500,0
7.597531,-926.7578,-5003.4180,6451.0488,-13641.6016,0
7.601437,-14785.1562,15847.1680,9622.0916,-14251.9531,0
7.605344,-15559.5703,-5438.9648,12793.1344,-14862.3047,0
7.609250,-4959.4727,14988.2812,14556.4493,-13729.6876,0
7.625000,10940.7266,15948.7305,-1069.2226,10284.5351,0
7.628906,3123.9023,-1688.4766,13279.7266,-4133.9102,0
7.632812,-12254.9375,-8996.5820,14416.9844,-12863.5000,0
7.636719,13539.2109,-15949.7070,1111.2617,9663.5859,0
7.640625,4813.6303,-812.9883,11049.2318,6528.2273,0
7.644531,2322.9634,-13003.4180,11648.5298,1023.9219,0
7.648438,-167.7035,15729.9805,12247.8277,-4480.3835,0
7.652344,-2658.3704,-4563.4766,12847.1257,-9984.6889,0
7.656250,-5149.0373,14996.5820,13446.4236,-13515.8122,0
7.672000,-15191.4062,-15918.4570,15862.7930,14499.6055,0
7.675906,7939.4531,-3314.4531,-3938.4766,12145.1054,0
7.679812,-2938.9648,-5011.7188,-10998.0469,-12454.0156,0
7.683719,-14980.4688,15878.4180,15964.3555,13053.1367,0
7.687625,13690.9180,-3313.4766,-3813.9648,6784.3316,0
7.691531,3070.3125,-1008.3008,-5010.7422,4044.4177,0
7.695437,-14847.6562,15737.7930,15901.8555,1304.5039,0
7.699344,-15809.0820,-4813.9648,-2188.4766,-1435.4099,0
7.703250,11055.6641,-5014.6484,-9017.5781,-4175.3237,0
7.719000,-15082.0312,15831.5430,15800.7812,-15222.6562,0
7.722906,-13433.1055,-1188.4766,62.0117,-14558.5938,0
7.726812,11058.5938,-1018.5547,10983.8867,1043.4570,0
7.730719,-15121.0938,15722.1680,15769.0430,-15121.0938,0
7.734625,12691.4062,-2062.9883,-2812.5000,15941.8945,0
7.738531,3082.0312,-11005.3711,-14999.0234,11082.0312,0
7.742437,-14996.0938,15980.4688,15651.8555,-15136.7188,0
7.746344,11690.4297,2062.9883,-3187.5000,10315.4297,0
7.750250,-6945.8008,11003.9062,15000.4883,5046.8750,0
7.765000,-15300.7812,15972.1680,15831.5430,9806.4059,0
7.768906,9439.9414,-1562.9883,-2688.4766,3219.4337,0
7.772812,-10946.7773,11002.4414,-7012.6953,-12506.1717,0
7.776719,-15035.1562,15988.2812,15761.2305,-15168.1836,0
7.780625,-14558.5938,2187.9883,-1812.9883,1836.7381,0
7.784531,-4931.6406,-6991.6992,-13005.3711,943.5832,0
7.788437,-14917.9688,-15973.1445,15933.1055,-3979.0717,0
7.792344,-8931.6406,-1437.9883,-1062.9883,-8901.7266,0
7.796250,-10917.9688,7009.2773,-8996.0938,-13824.3815,0
7.797000,-14738.2812,-15777.8320,-15910.6445,-14769.5312,0
7.800906,-12557.1289,-62.5000,-312.5000,-14182.1289,0
7.804812,9093.2617,1002.4414,15000.4883,3088.8672,0
7.808719,-14628.9062,-15949.7070,15847.1680,-14832.0312,0
7.812625,-8806.6406,-812.9883,-3438.4766,-12933.1055,0
7.816531,5082.5195,-6996.0938,-15002.9297,9070.3125,0
7.820437,-14792.9688,-15980.4688,-15988.7695,-14863.2812,0
7.824344,-13058.1055,187.5000,-437.5000,-15558.5938,0
7.828250,7067.3828,11003.9062,1005.8594,-6929.6875,0
7.844000,-15003.9062,15933.1055,-15910.1562,-15035.1562,0
7.847906,-15934.0820,-2312.9883,312.0117,14315.9180,0
7.851812,3048.3398,-11001.4648,-5001.4648,13063.4766,0
7.855719,-15316.4062,15847.1680,15917.4805,-14980.4688,0
7.859625,11941.4062,-3437.9883,-687.5000,-12557.6172,0
7.863531,9058.5938,6989.2578,4994.1406,-8932.1289,0
7.867437,-15128.9062,15855.4688,15996.0938,-15003.9062,0
7.871344,-12308.1055,687.0117,3562.9883,-14683.1055,0
7.875250,15054.6875,-1014.1602,-4998.5352,7065.4297,0
7.890000,535.1563,15800.2930,5026.8555,-15105.4688,0
7.893906,-3310.0586,-2563.4766,7681.8848,12065.4297,0
7.897812,-7155.2734,8992.6758,10336.9141,13052.7344,0
7.901719,-11000.4883,15972.1680,12991.9434,-15160.1562,0
7.905625,-14845.7031,-187.9883,15646.9727,-15308.1055,0
7.909531,8429.0820,-13002.9297,-1581.8047,-8921.3867,0
7.913437,-5229.2109,15948.7305,11419.6992,-14785.1562,0
7.917344,-14357.5000,-1437.9883,15665.4180,-12183.1055,0
7.921250,9679.7148,-13008.3008,-107.8633,15072.2656,0
7.937000,-15019.5312,15909.6680,15979.9805,-14816.4062,0
7.940906,14815.9180,-1062.9883,-812.9883,-13808.5938,0
7.944812,11060.5469,996.5820,-5004.3945,-4931.1523,0
7.948719,-15097.6562,-15988.2812,15933.5938,-14910.1562,0
7.952625,15940.4297,687.5000,1687.5000,-12808.5938,0
7.956531,-12973.6328,4991.6992,-13012.2070,-2939.4531,0
7.960437,-15566.4062,15714.3555,15769.0430,-14933.5938,0
7.964344,9813.9648,-4063.4766,-812.9883,-12433.1055,0
7.968250,-973.6328,-11007.8125,-6996.5820,-6918.9453,0
8.000000,-15597.6562,15940.9180,312.2500,-5846.6758,0
8.003906,6439.4531,-2187.9883,-15066.8125,6798.4140,0
8.007812,1029.2969,11000.9766,-14105.6562,-14603.8437,0
8.011719,-15457.0312,15894.0430,2852.5000,-13307.2031,0
8.015625,11064.9414,-187.5000,14266.4620,-11030.7501,0
8.019531,5041.0156,7000.4883,6625.4418,-11976.6739,0
8.023438,-15324.2188,-15949.7070,-1015.5785,-12922.5977,0
8.027344,8189.4531,-562.5000,-8656.5988,-13868.5216,0
8.031250,1025.8789,997.5586,-14632.9373,-14581.4687,0
8.047000,-15464.8438,15925.2930,-2616.0352,-10830.7734,0
8.050906,8562.9883,-2563.9648,-6617.8047,1360.7344,0
8.054812,9012.6953,-13014.6484,14094.6055,-14518.3750,0
8.058719,-15628.9062,15878.4180,-3226.1289,-10299.4453,0
8.062625,4688.4766,-3063.4766,-12659.8314,4846.6278,1
8.066531,-8977.5391,10982.4219,-9096.0631,2419.9397,1
8.070437,-15683.5938,15503.4180,-5532.2948,-6.7485,1
8.074344,7438.9648,-6188.9648,-1968.5265,-2433.4366,1
8.078250,9017.0898,-3019.0430,1595.2417,-4860.1247,1
8.094000,-15566.4062,15854.9805,15964.3555,-14644.5312,1
8.097906,10689.9414,-62.9883,-562.9883,-8682.6172,1
8.101812,-12961.4258,12989.2578,8991.2109,-8916.0156,1
8.105719,-15347.6562,15831.5430,15917.4805,-14503.9062,1
8.109625,9564.4531,-4563.9648,-4063.9648,-8557.1289,1
8.113531,1037.1094,-13011.2305,4986.3281,-2902.8320,1
8.117437,-15332.0312,15854.9805,15792.4805,-14324.2188,1
8.121344,12940.9180,-1563.4766,-2312.9883,-3555.6641,1
8.125250,-14944.3359,-7014.1602,-5003.4180,-877.9297,1
8.140000,-15074.2188,15878.4180,2395.9767,-3327.3830,1
8.143906,15815.9180,-1688.4766,-7590.9765,5771.9921,1
8.147812,11053.7109,982.4219,11989.5896,-10755.3123,1
8.151719,-15042.9688,15776.8555,-225.2732,-5147.3829,1
8.155625,13564.4531,-3188.9648,297.1289,-6326.3671,1
8.159531,-8950.1953,14982.9102,4077.9215,-8326.5991,1
8.163437,-15175.7812,15706.5430,7760.1337,-10051.2056,1
8.167344,10189.4531,-5938.9648,11442.3460,-11775.8121,1
8.171250,-6958.9844,2980.9570,15124.5582,-13500.4185,1
8.172000,-15332.0312,15706.5430,15831.5430,-13831.5430,1
8.175906,7939.4531,-6439.4531,-2688.4766,1695.3125,1
8.179812,5035.1562,-7027.8320,-15007.3242,7128.9062,1
8.183719,-15496.0938,15511.2305,15870.6055,-14003.4180,1
8.187625,9314.4531,-7189.9414,-4188.9648,1821.2891,1
8.191531,-6959.4727,10961.9141,-9011.7188,1144.5312,1
8.195437,-15316.4062,15737.7930,15925.2930,-13628.4180,1
8.199344,9690.4297,-2063.4766,-1562.9883,5321.7773,1
8.203250,13056.6406,-3008.7891,-8998.0469,3153.8086,1
8.234000,-15207.0312,15792.4805,1227.2265,1861.4258,1
8.237906,13689.9414,-2063.4766,-11176.3086,-3313.8282,1
8.241812,-969.2383,12973.6328,11217.3243,-12337.5586,1
8.245719,-15558.5938,15519.0430,380.1367,-567.3242,1
8.249625,2812.9883,-7689.4531,8822.9493,-8806.8555,1
8.253531,1009.2773,-13030.7617,12068.3594,-11501.4980,1
8.257437,-15855.4688,15526.8555,13350.0977,-12271.1616,1
8.261344,1687.5000,-4312.9883,14631.8359,-13040.8253,1
8.265000,15957.0312,15659.6680,15831.5430,-13761.2305,1
8.265250,-4997.5586,2989.7461,14790.2928,-12636.0115,1
8.268906,312.9883,-4688.9648,-437.9883,3820.3125,1
8.272812,1012.6953,12973.1445,2982.9102,-871.5820,1
8.276719,-15621.0938,15612.7930,15878.4180,-13862.7930,1
8.280625,5187.9883,-5939.4531,-1688.4766,1820.3125,1
8.284531,3006.3477,-3028.3203,-9015.6250,15124.0234,1
8.288437,-15894.5312,15636.2305,15714.3555,-14199.2188,1
8.292344,4563.4766,-3813.9648,-1063.4766,-429.6875,1
8.296250,13011.7188,8971.1914,-7021.4844,3113.7695,1
8.312000,-15824.2188,15550.2930,15761.2305,-14128.9062,1
8.315906,3563.4766,-6939.9414,-2688.4766,-1555.1758,1
8.319812,15033.6914,-13028.8086,-7000.9766,9124.5117,1
8.323719,-15566.4062,15706.5430,15925.2930,-14082.0312,1
8.327625,6064.4531,-3939.4531,-3188.4766,-1180.1758,1
8.331531,-968.2617,-5034.1797,960.4492,-4889.1602,1
8.335437,-15582.0312,15550.2930,15448.7305,-14347.6562,1
8.339344,7939.4531,-6939.4531,-4813.9648,-5931.1523,1
8.343250,-6970.7031,12975.5859,8979.9805,-14894.5312,1
8.375000,-15519.5312,15769.0430,-3194.4141,-3084.2109,1
8.378906,8313.4766,-4439.9414,6023.3672,-7575.2617,1
8.382812,15013.6719,-1031.7383,13810.0586,-12831.4531,1
8.386719,-15683.5938,15604.9805,-3071.0703,-463.2383,1
8.390625,6688.4766,-5564.9414,11037.0190,4652.0066,1
8.394531,13012.2070,-5041.5039,11605.7393,-127.5063,1
8.398438,-15746.0938,15526.8555,12174.4596,-4907.0193,1
8.402344,5563.9648,-6064.4531,12743.1799,-9686.5322,1
8.406250,5020.0195,12969.2383,13311.9002,-13529.5311,1
8.422000,-15597.6562,15472.1680,15604.9805,-2869.1601,1
8.425906,5812.9883,-12190.9180,-6188.9648,5059.4765,1
8.429812,1009.7656,2955.5664,10984.3750,-13709.8437,1
8.433719,-15730.4688,15425.2930,15706.5430,-5765.9219,1
8.437625,6063.9648,-8564.9414,-5937.9883,10795.6024,1
8.441531,-981.4453,8968.2617,10999.5117,7659.3806,1
8.445437,15901.8555,15456.5430,15550.2930,4523.1588,1
8.449344,-3313.4766,-8814.4531,-9189.4531,1386.9369,1
8.453250,4986.8164,-13031.2500,-3020.0195,-1749.2849,1
8.469000,15941.4062,15378.4180,15644.0430,-14394.5312,1
8.472906,437.5000,-10064.9414,-5813.9648,-5555.6641,1
8.476812,-14997.0703,10965.3320,-15012.6953,7110.3516,1
8.480719,-15902.3438,15378.4180,15784.6680,-14207.0312,1
8.484625,2187.9883,-11065.4297,-4688.4766,-1055.1758,1
8.488531,-6986.8164,-1033.6914,987.3047,-8873.5352,1
8.492437,-15996.0938,15487.7930,15753.4180,-13933.1055,1
8.496344,937.5000,-8939.9414,-4813.4766,945.3125,1
8.500250,9003.9062,8964.3555,6984.3750,-6865.7227,1
8.515000,-266.0549,15503.4180,-770.2732,-13854.9805,1
8.518906,13043.6913,-6814.4531,-8193.4374,1445.8008,1
8.522812,15832.7344,-11025.3906,11838.1833,-4855.9570,1
8.526719,6706.0353,15628.4180,2475.9767,-13651.8555,1
8.530625,-67.5585,-6938.4766,9207.6952,6196.7773,1
8.534531,767.2893,979.4922,11477.0016,15155.7617,1
8.538437,2896.2005,15456.5430,12076.2503,-13800.2930,1
8.542344,5025.1117,-6438.9648,12675.4989,6321.2891,1
8.546250,7154.0229,4969.7266,13274.7475,-10888.6719,1
8.562000,15737.7930,15581.5430,15690.9180,10290.1759,1
8.565906,-6565.9180,-1187.9883,-4312.5000,3263.1054,0
8.569812,-15039.0625,967.2852,3009.7656,-12887.1094,0
8.573719,15394.0430,15745.6055,15980.4688,403.5157,0
8.577625,-11815.9180,-3687.9883,4190.4297,11545.3711,0
8.581531,-13066.4062,10984.8633,-6938.4766,7278.9103,0
8.585437,15104.9805,15323.7305,-15011.7188,361.7137,0
8.589344,-15313.9648,-15567.3828,-9553.7109,-6555.4829,0
8.593250,7036.1328,-7009.7656,-799.8047,-13472.6795,0
8.594000,-15488.2812,-15167.4805,-12385.7422,-14800.7812,0
8.597906,8190.9180,7576.1719,4328.6133,14691.8945,0
8.601812,-8879.8828,5360.8398,7173.3398,-8866.6992,0
8.605719,-13308.5938,-3922.3633,-12894.0430,-12948.7305,0
8.609625,-10058.1055,-7502.4414,-6434.5703,9825.6836,0
8.613531,-14862.7930,-29.7852,-12824.2188,5297.3633,0
8.617437,-13729.9805,-391.1133,-3719.2383,-10838.8672,0
8.621344,3074.7070,-6501.9531,-377.9297,-10039.0625,0
8.625250,-12642.5781,-8025.8789,15973.1445,3509.2773,0
8.656000,-9486.8164,-414.5508,-398.9258,-7361.3281,0
8.659906,10090.3320,-6501.9531,-6501.9531,11223.1445,0
8.663812,5520.9961,-8025.8789,-38.5742,15622.0703,0
8.667719,-6306.1523,-406.7383,-211.4258,-4931.1523,0
8.671625,3479.9805,-6501.9531,-10144.0430,-8890.6250,0
8.675531,-12267.5781,-8026.3672,-2218.7500,5797.8516,0
8.679437,-3118.1641,-406.7383,-860.3516,-1867.6758,0
8.683344,8364.7461,-6501.9531,-5375.4883,7495.6055,0
8.687000,-1633.3008,-406.7383,3156.2500,-437.9883,0
8.687250,-6108.3984,-8025.8789,-563.9648,-20.9961,0
8.690906,5366.6992,-6376.9531,14.1602,-6501.9531,0
8.694812,-12052.7344,-6025.8789,6291.9922,-8025.8789,0
8.698719,-367.6758,-398.9258,687.5000,-406.7383,0
8.702625,-7001.9531,-6501.9531,0.0000,-6501.9531,0
8.706531,-12026.3672,-8025.8789,42.4805,-8025.8789,0
8.710437,-414.5508,-406.7383,890.6250,-406.7383,0
8.714344,-6626.9531,-6501.9531,10.2539,-6501.9531,0
8.718250,-10026.3672,-8025.8789,-3662.1094,-8025.8789,0
8.750000,-6953.2969,-406.7383,-9847.0937,-6648.2969,0
8.753906,-9103.6328,-6501.9531,3279.5195,-7294.8828,0
8.757812,-1010.9414,-8025.8789,-12232.1445,-991.8789,0
8.761719,-6953.3438,-406.7383,-4655.4101,-6648.2500,0
8.765625,-9913.4166,-6501.9531,4946.5755,-7935.8891,0
8.769531,-8731.7615,-8026.3672,2915.0540,-6998.4948,0
8.773438,-7550.1065,-414.5508,883.5324,-6061.1005,0
8.777344,-6368.4515,-6501.9531,-1147.9891,-5123.7062,0
8.781250,-5186.7964,-8025.8789,-3179.5107,-4186.3120,0
8.797000,-422.3633,-406.7383,-11370.6055,-406.7383,0
8.800906,-6626.9531,-6501.9531,-925.2930,-6501.9531,0
8.804812,-10026.3672,-8024.4141,15295.8984,-10025.8789,0
8.808719,-422.3633,-562.9883,-10338.8672,-406.7383,0
8.812625,-6626.9531,-3380.3711,2954.1016,-6501.9531,0
8.816531,-10026.8555,11726.5625,9330.5664,-8025.8789,0
8.820437,-414.5508,-4775.3906,-10065.4297,-406.7383,0
8.824344,-6626.9531,-5536.1328,-5042.4805,-6501.9531,0
8.828250,-10026.3672,11320.3125,11303.7109,-8025.8789,0
8.859000,-414.5508,-10588.8672,9744.2579,-5526.7188,0
8.862906,-6751.9531,-13673.8281,15164.8047,-7782.0508,0
8.866812,-10026.3672,-10812.0117,-6298.5548,-1625.8008,0
8.870719,-414.5508,-13519.5312,-2223.3007,-5526.7188,0
8.874625,-6626.9531,-2433.5938,2727.3438,-1031.8885,0
8.878531,-10026.3672,9058.1055,147.1940,-6770.4327,0
8.882437,-414.5508,15769.0430,-3693.1070,-7892.0234,0
8.886344,-6626.9531,-13303.7109,-7533.4080,-1145.2852,0
8.890000,-453.6133,-15542.9688,-11127.9297,-5527.9687,0
8.890250,-10026.3672,-12860.3516,-11282.2422,-5917.5625,0
8.893906,-5253.4180,-11298.3398,-13539.0625,-7782.0508,0
8.897812,13929.6875,-10778.3203,11396.4844,-1638.9259,0
8.901719,-1141.1133,-14089.3555,-10354.0039,-5004.6288,0
8.905625,3366.6992,-11791.0156,3718.2617,7430.4881,0
8.909531,-154.7852,11396.4844,5484.8633,8821.8756,0
8.913437,-3430.6641,-10479.4922,-9955.5664,7460.6179,0
8.917344,5982.9102,-1161.6211,15470.7031,6099.3603,0
8.921250,1703.1250,-10481.9336,5468.2617,4738.1026,0
8.953000,3397.1055,-6111.3281,-5321.1484,-591.2344,0
8.956906,512.6836,-14276.8555,309.1211,-13433.7969,0
8.960812,-7000.7383,1680.6641,-8737.3320,-4911.9336,0
8.964719,11015.2734,-5603.5156,2263.7812,502.9180,0
8.968625,516.3574,-142.0898,-10948.7305,-6815.9180,0
8.969000,-10448.2422,-891.1133,-9338.3789,-7306.6406,0
8.972531,-10416.4609,1781.7383,2572.9687,7073.4922,0
8.972906,-10413.0859,7995.1172,3837.8906,8600.5859,0
8.976437,-3385.8984,-2969.7266,-9225.0859,11286.9844,0
8.976812,-2639.6484,11954.1016,-10612.3047,11572.2656,0
8.980344,-9804.5547,-15764.1602,-10584.0547,-5381.2656,0
8.980719,-10565.4297,-469.2383,-10581.0547,-7181.6406,0
8.984250,8214.6406,9826.1719,10473.5820,2675.8437,0
8.984625,10208.9844,-6251.9531,12709.4727,3722.6562,0
8.988531,-14661.6211,-14025.3906,-12649.9023,-4443.8477,0
8.992437,-12417.4805,-406.7383,-10534.1797,-8822.7539,0
8.996344,-1667.9688,-6501.9531,-1291.5039,-8904.7852,0
9.000250,-8752.4414,-8025.8789,-14674.8047,-546.3867,0
9.015000,-12596.6797,-406.7383,-10135.2539,-9432.1289,0
9.018906,9076.1719,-6501.9531,12833.9844,-8036.6211,0
9.022812,7154.7852,-8025.8789,-8576.6602,5366.6992,0
9.026719,-12815.9180,-406.7383,-8861.8164,-9689.9414,0
9.030625,-6925.7812,-6501.9531,5085.9375,9586.9141,0
9.034531,3143.5547,-8025.8789,9367.1875,9353.0273,0
9.038437,-13370.6055,-406.7383,-8744.6289,-10073.2422,0
9.042344,7697.2656,-6501.9531,13209.4727,-4915.0391,0
9.046250,-4873.5352,-8025.8789,7344.2383,-12671.8750,0
9.062000,-13370.6055,-406.7383,-9127.4414,-10064.9414,0
9.065906,-15680.6641,-6501.9531,15584.4727,5582.0312,0
9.069812,9114.7461,-8025.8789,3343.2617,9319.3359,0
9.073719,-13581.5430,-406.7383,-9205.5664,-10213.8672,0
9.077625,11197.7539,-6501.9531,-12916.5039,-1665.0391,0
9.081531,-2898.4375,-8025.8789,-10683.5938,-14695.8008,0
9.085437,-14479.9805,-406.7383,-9135.2539,-11416.9922,0
9.089344,5567.8711,-6501.9531,-8533.2031,-10794.9219,0
9.093250,-10891.1133,-8025.8789,7447.7539,-12709.4727,0
9.109000,-14675.7812,-406.7383,-8729.0039,-11877.9297,0
9.112906,-10928.7109,-6501.9531,-780.7617,831.0547,0
9.116812,9079.1016,-8025.8789,-10541.5039,-8755.3711,0
9.120719,-15339.8438,-406.7383,-9416.5039,-12651.8555,0
9.124625,-14931.6406,-6501.9531,-10784.1797,-5796.3867,0
9.128531,7096.1914,-8025.8789,-10565.9180,15270.0195,0
9.132437,-15285.1562,-406.7383,-9127.4414,-12581.5430,0
9.136344,2440.4297,-6501.9531,-14534.6680,12700.1953,0
9.140250,1107.9102,-8025.8789,-2540.5273,-4727.5391,0
9.172000,-14621.0938,-406.7383,-9643.0664,-8318.8594,0
9.175906,13689.9414,-6501.9531,7966.3086,-11064.8867,0
9.179812,-14979.9805,-8025.8789,-10600.0977,-13418.4336,0
9.183719,-15035.1562,-406.7383,-10713.8672,-12943.3828,0
9.187625,14688.9648,-6501.9531,15962.4023,14833.8729,0
9.191531,-5000.4883,-8025.8789,-14572.2656,11348.6213,0
9.195437,-15886.7188,-406.7383,-10644.0430,7863.3697,0
9.199344,6311.0352,-6501.9531,-541.5039,4378.1181,0
9.203250,6997.5586,-8025.8789,13404.2969,892.8665,0
9.219000,-15738.2812,-406.7383,-11041.9922,-13159.6680,0
9.222906,1562.0117,-6626.9531,12334.9609,8696.2891,0
9.226812,6936.0352,13973.6328,3368.6523,-899.9023,0
9.230719,14761.2305,-352.0508,-11260.7422,-14566.4062,0
9.234625,15558.5938,-12752.4414,4583.0078,-9431.6406,0
9.238531,2873.5352,5953.6133,1354.0039,15028.8086,0
9.242437,13823.7305,-1875.4883,-11534.1797,-15996.0938,0
9.246344,-8189.9414,13873.5352,5584.4727,-3306.6406,0
9.250250,896.9727,9935.5469,-6639.1602,-8976.0742,0
9.265000,13377.9297,-1891.1133,-10916.9922,15738.2812,0
9.268906,-2441.8945,8245.1172,12830.5664,1816.4062,0
9.272812,-1067.3828,3954.5898,15337.4023,13068.3594,0
9.276719,14057.6172,-1547.8516,-10886.2305,-15902.8320,0
9.280625,-7191.8945,-5378.9062,-44.9219,-6809.0820,0
9.284531,-15101.5625,-8120.6055,13366.6992,9006.8359,0
9.288437,13729.4922,-2368.1641,-11635.7422,15308.1055,0
9.292344,-3445.3125,-1010.2539,3206.5430,-7437.9883,0
9.296250,-11083.0078,-14064.9414,1270.0195,7017.5781,0
9.297000,13518.5547,-2165.0391,-10409.1797,15050.2930,0
9.300906,-11190.9180,10114.7461,-12922.3633,14814.9414,0
9.304812,2950.1953,11931.1523,-2775.3906,-8961.9141,0
9.308719,13487.3047,-1696.7773,-10940.4297,14925.2930,0
9.312625,7929.6875,-7139.1602,-14547.8516,1810.0586,0
9.316531,12919.4336,1918.9453,-10775.8789,-13000.4883,0
9.320437,14510.7422,-1891.6016,-11713.8672,15815.9180,0
9.324344,-7701.1719,6360.3516,-12293.9453,12678.2227,0
9.328250,-13123.0469,-4215.3320,3113.7695,6928.2227,0
9.344000,14385.7422,-3211.9141,-13010.7422,15081.5430,0
9.347906,-2315.4297,2487.3047,-12668.9453,9312.0117,0
9.351812,12891.1133,3844.2383,7169.9219,-13098.1445,0
9.355719,13456.5430,-3626.4648,-13885.7422,13800.2930,0
9.359625,-13943.8477,-10140.6250,11080.0781,-7318.8477,0
9.363531,6886.2305,3767.0898,-4884.7656,-7125.9766,0
9.367437,13745.6055,-4313.9648,-14213.8672,13526.3672,0
9.371344,1936.5234,-12391.6016,-7793.9453,-1815.4297,0
9.375250,-3019.5312,1726.0742,13215.3320,14934.5703,0
9.390000,15042.4805,-4134.2773,-12823.2422,14300.2930,0
9.393906,-15192.8711,-4020.9961,6327.6367,1927.7344,0
9.397812,-13067.8711,9666.0156,7248.0469,-5127.9297,0
9.401719,15222.1680,-4251.4648,-12917.4805,14308.1055,0
9.405625,-7562.5000,-1145.9961,15080.5664,6057.1289,0
9.409531,8934.5703,9626.9531,7151.8555,4836.4258,0
9.413437,14784.6680,-5196.7773,-13769.0430,13073.7305,0
9.417344,-1311.5234,-9643.5547,-421.3867,3431.6406,0
9.421250,-15064.4531,11622.0703,3224.6094,2834.4727,0
9.453000,15832.0312,-4728.0273,-12472.1680,3537.9063,0
9.456906,7310.0586,-5023.4375,-15173.8281,12902.0352,0
9.460812,-7003.4180,5641.6016,-741.6992,12518.1836,0
9.464719,15972.6562,-4603.0273,-12628.9062,1147.7109,0
9.468625,7437.0117,-12648.4375,-428.7109,1135.0679,0
9.472531,-11046.8750,5664.5508,7266.6016,4235.7507,0
9.476437,15871.0938,-5564.4531,-10917.4805,7336.4335,0
9.480344,2688.9648,-645.0195,-14426.7578,10437.1163,0
9.484000,15605.4688,-6461.9141,-12997.0703,13339.3555,0
9.484250,-13016.1133,11572.7539,-14762.2070,12777.2618,0
9.487906,8939.9414,3104.4922,13039.0625,4556.6406,0
9.491812,6975.0977,5576.6602,-1191.8945,8842.7734,0
9.495719,15097.6562,-4946.7773,11939.9414,12698.2422,0
9.499625,5191.4062,-14770.9961,14794.9219,-317.3828,0
9.503531,-4990.7227,-6395.9961,-7125.9766,-5137.2070,0
9.507437,15995.6055,-5462.4023,14979.4922,13916.9922,0
9.511344,-10315.9180,-14403.8086,10422.3633,-10700.1953,0
9.515250,1035.6445,-4342.2852,-8909.1797,-3087.8906,0
9.547000,-15145.0195,-4892.5781,-13137.2070,4012.3359,0
9.550906,-943.3594,-9530.7617,-11825.6836,-12416.3125,0
9.554812,-13020.9961,-2443.3594,14916.0156,12470.4805,0
9.558719,-14621.0938,-4212.4023,-13176.2695,3310.2461,0
9.562625,2806.6406,4968.2617,-1447.7539,12818.6420,0
9.566531,4941.8945,13536.6211,7100.0977,12989.4323,0
9.570437,15738.2812,-5688.9648,-12863.2812,13160.2226,0
9.574344,7685.5469,3598.1445,-5182.1289,13331.0129,0
9.578250,2938.9648,5501.9531,6964.8438,13501.8032,0
9.594000,-15511.7188,-6001.4648,-15104.9805,14190.4297,0
9.597906,2808.1055,1590.8203,11818.3594,-951.1719,0
9.601812,-13106.9336,-4500.0000,-1025.3906,2744.6289,0
9.605719,14589.3555,-7736.8164,15066.8945,12549.8047,0
9.609625,12683.1055,-9281.7383,11449.2188,14550.2930,0
9.613531,-3121.0938,-12545.8984,-13061.5234,-15262.6953,0
9.617437,13675.2930,-9478.5156,14144.5312,11502.9297,0
9.621344,-9193.3594,15593.2617,-7924.8047,-9201.6602,0
9.625250,-5133.3008,-8633.7891,-14965.8203,-5279.2969,0
9.640000,14073.2422,-9783.6914,10911.6211,-2926.5037,0
9.643906,-6316.4062,9216.3086,925.3126,-3633.3399,0
9.647812,927.2461,-14490.7227,11046.9334,9619.0037,0
9.651719,13088.8672,-9479.4922,-8513.8278,-7797.2654,0
9.655625,-5942.3828,9210.4492,-6109.7852,-1204.2580,0
9.659531,2877.4414,-4582.0312,-703.6744,3017.6391,0
9.663437,14073.2422,-9190.4297,4244.1697,5690.4704,0
9.667344,-9698.2422,-7913.5742,9192.0137,8363.3016,0
9.671250,-5075.6836,-10556.6406,14139.8577,11036.1328,0
9.672000,13831.0547,-10565.4297,15089.8438,11549.3164,0
9.675906,-13193.8477,13837.8906,-4416.9922,13422.3633,0
9.679812,10902.3438,-4595.2148,-718.2617,-9220.2148,0
9.683719,12799.8047,-11026.3672,-12558.1055,10775.8789,0
9.687625,-14820.8008,-7163.5742,-11545.8984,15795.8984,0
9.691531,12883.3008,-2616.6992,-4687.5000,-5242.6758,0
9.695437,13924.8047,-9112.3047,-12729.9805,11971.1914,0
9.699344,-6944.3359,-10039.5508,-10044.4336,-5952.1484,0
9.703250,6855.4688,-4580.0781,13259.7656,10729.4922,0
9.719000,13979.9805,-10565.4297,-11565.9180,12018.5547,0
9.722906,9552.2461,13709.9609,-4297.3633,11794.4336,0
9.726812,902.3438,-6521.4844,9312.0117,10771.4844,0
9.730719,14588.8672,-10409.1797,-10823.2422,12268.0664,0
9.734625,-11567.8711,5589.8438,-10289.0625,-14825.6836,0
9.738531,-3113.2812,11372.5586,-12643.5547,4758.3008,0
9.742437,13573.7305,-11784.1797,-10393.0664,11588.8672,0
9.746344,-11191.8945,-6538.5742,6581.5430,-13448.7305,0
9.750250,-3176.7578,-10577.6367,-2674.8047,14716.7969,0
9.765000,14308.1055,-9784.1797,-10041.9922,12354.4922,0
9.768906,9551.7578,14833.9844,12324.7070,9543.9453,0
9.772812,-5076.6602,7373.5352,11335.9375,-5198.2422,0
9.776719,14565.4297,-10143.0664,-10183.1055,12893.5547,0
9.780625,-696.2891,6834.4727,-3299.8047,4046.3867,0
9.784531,4833.9844,9312.5000,1168.4570,10728.0273,0
9.788437,15050.2930,-9572.7539,-11581.0547,13221.6797,0
9.792344,-11198.2422,12833.4961,-15678.7109,-11455.5664,0
9.796250,-15102.5391,-4638.6719,11124.5117,-7203.6133,0
9.812000,15386.2305,-9080.5664,-11581.0547,14073.2422,0
9.815906,7311.0352,3088.3789,8322.7539,-14695.8008,0
9.819812,12964.8438,5344.2383,-6924.3164,12871.0938,0
9.823719,14315.9180,-9721.1914,-12604.4922,12791.9922,0
9.827625,15184.5703,-12665.5273,5443.3594,-9945.8008,0
9.831531,12956.5430,7332.0312,15079.5898,860.3516,0
9.835437,15745.6055,-9916.0156,-11417.4805,14151.3672,0
9.839344,-13568.3594,334.9609,-926.2695,-5948.7305,0
9.843250,2958.4961,-12706.5430,3130.3711,-15125.0000,0
9.859000,15065.9180,-9432.1289,-13354.9805,13557.6172,0
9.862906,-13689.4531,-14911.1328,-9179.1992,-6069.8242,0
9.866812,8935.5469,-10617.1875,-6879.3945,-9133.7891,0
9.870719,14308.1055,-10752.4414,-14644.0430,13198.2422,0
9.874625,-9811.5234,1960.4492,8069.8242,-567.8711,0
9.878531,6973.1445,9345.7031,-12907.7148,14888.1836,0
9.882437,15714.3555,-8908.6914,-12526.8555,14526.3672,0
9.886344,11808.1055,1710.4492,-13176.2695,-5696.2891,0
9.890250,-9029.2969,1365.7227,-2810.0586,-5086.9141,0
9.922000,14948.7305,-10619.6289,-14667.4805,-772.6406,0
9.925906,-4817.3828,4205.5664,325.6836,2019.6328,0
9.929812,-7030.2734,9367.1875,11227.0508,13415.9961,0
9.933719,15776.8555,-9737.3047,-15176.7578,13107.1172,0
9.937625,-12813.4766,-11543.4570,11564.9414,-10856.5991,0
9.941531,-3086.4258,-10758.3008,-10716.7969,-7847.1334,0
9.945437,14285.1562,-11151.3672,-13871.5820,-4837.6676,0
9.949344,4188.4766,-8544.4336,11440.9180,-1828.2019,0
9.953250,-15062.5000,5245.1172,9246.5820,1181.2638,0
9.969000,14464.3555,-11807.6172,-14090.3320,13315.4297,0
9.972906,7185.5469,11458.0078,-15305.6641,-14193.8477,0
9.976812,-7092.2852,1222.1680,-2742.1875,-13137.6953,0
9.980719,15214.3555,-11119.6289,-14043.4570,14300.2930,0
9.984625,-8315.9180,1326.6602,8308.5938,11180.6641,0
9.988531,-9023.9258,-14762.2070,-4821.7773,-7092.7734,0
9.992437,14925.2930,-11745.1172,-13050.7812,14183.1055,0
9.996344,-5566.4062,-7791.9922,11943.8477,14180.1758,0
10.000250,-3063.4766,13249.5117,1198.2422,12873.5352,0
10.015000,14808.1055,-11885.7422,-14801.7578,13651.3672,0
10.018906,8809.0820,13827.6367,-3445.8008,-9444.8242,0
10.022812,-5036.1328,5212.4023,15122.5586,8900.8789,0
10.026719,15589.3555,-12534.1797,-14723.1445,14519.0430,0
10.030625,-9318.3594,10706.0547,6805.6641,5177.7344,0
10.034531,934.5703,-794.9219,-10954.1016,4855.9570,0
10.038437,15144.0430,-13245.6055,-15472.6562,14041.9922,0
10.042344,6683.5938,-3923.3398,817.3828,-11196.7773,0
10.046250,-3011.7188,-8791.0156,-15104.9805,8897.9492,0
10.047000,14597.1680,-12518.5547,15793.4570,13534.6680,0
10.050906,-14314.9414,8076.6602,5562.9883,55.1758,0
10.054812,-3084.4727,3143.5547,-5195.8008,-9145.5078,0
10.058719,14604.9805,-12737.3047,14550.7812,13948.2422,0
10.062625,9057.6172,-10422.3633,1309.0820,-6445.8008,0
10.066531,4929.1992,7091.7969,-7171.8750,-15097.1680,0
10.070437,14112.7930,-13526.8555,14113.7695,13791.9922,0
10.074344,678.2227,-549.3164,10566.4062,-6824.2188,0
10.078250,2871.5820,-10841.7969,-3242.1875,10842.2852,0
10.094000,14268.5547,-14144.0430,14566.8945,13854.4922,0
10.097906,-2194.3359,3451.1719,9564.4531,-8821.2891,0
10.101812,6878.9062,9165.0391,12797.3633,12835.9375,0
10.105719,14401.8555,-13979.9805,12636.2305,13792.4805,0
10.109625,14679.6875,3075.6836,15934.5703,9677.7344,0
10.113531,-11126.4648,15215.8203,6765.6250,4826.1719,0
10.117437,14050.2930,-14144.0430,12223.1445,13643.5547,0
